[Header]
Data File Name	D:\助燃剂标准品检验\2#煤油\千分一2#煤-乙.qgd
Output Date	2018/4/17
Output Time	17:58:19

[MS Chromatogram]
m/z	1-1 TIC
Event Time(msec)	200
# of Points	8700
Start Time(min)	3.000
End Time(min)	31.997
Ret.Time	Absolute Intensity	Relative Intensity
3.000	189418	3.40
3.003	189076	3.39
3.007	185240	3.33
3.010	177030	3.18
3.013	163802	2.94
3.017	148568	2.67
3.020	132802	2.38
3.023	116253	2.09
3.027	102050	1.83
3.030	90587	1.63
3.033	82661	1.48
3.037	78010	1.40
3.040	78009	1.40
3.043	82965	1.49
3.047	95200	1.71
3.050	112119	2.01
3.053	133066	2.39
3.057	158892	2.85
3.060	187249	3.36
3.063	214814	3.86
3.067	241029	4.33
3.070	265957	4.77
3.073	284533	5.11
3.077	292568	5.25
3.080	291228	5.23
3.083	284433	5.11
3.087	273775	4.91
3.090	260768	4.68
3.093	248484	4.46
3.097	240227	4.31
3.100	237685	4.27
3.103	242721	4.36
3.107	256408	4.60
3.110	275959	4.95
3.113	301812	5.42
3.117	333528	5.99
3.120	365110	6.55
3.123	393318	7.06
3.127	415755	7.46
3.130	433336	7.78
3.133	450122	8.08
3.137	462036	8.29
3.140	464543	8.34
3.143	461481	8.28
3.147	456214	8.19
3.150	445371	7.99
3.153	426947	7.66
3.157	406340	7.29
3.160	388778	6.98
3.163	379470	6.81
3.167	383006	6.88
3.170	402593	7.23
3.173	437173	7.85
3.177	484181	8.69
3.180	540551	9.70
3.183	600705	10.78
3.187	657431	11.80
3.190	700550	12.58
3.193	727926	13.07
3.197	735873	13.21
3.200	711074	12.76
3.203	654157	11.74
3.207	580455	10.42
3.210	502744	9.02
3.213	426993	7.66
3.217	354915	6.37
3.220	291203	5.23
3.223	239750	4.30
3.227	199885	3.59
3.230	169545	3.04
3.233	147413	2.65
3.237	133021	2.39
3.240	123620	2.22
3.243	118331	2.12
3.247	116043	2.08
3.250	114519	2.06
3.253	114186	2.05
3.257	115519	2.07
3.260	118301	2.12
3.263	122506	2.20
3.267	127627	2.29
3.270	132949	2.39
3.273	137543	2.47
3.277	142361	2.56
3.280	144254	2.59
3.283	142384	2.56
3.287	139601	2.51
3.290	135729	2.44
3.293	129232	2.32
3.297	121727	2.19
3.300	115940	2.08
3.303	113053	2.03
3.307	110803	1.99
3.310	110928	1.99
3.313	115777	2.08
3.317	122863	2.21
3.320	130394	2.34
3.323	139898	2.51
3.327	151704	2.72
3.330	160811	2.89
3.333	165685	2.97
3.337	169241	3.04
3.340	170016	3.05
3.343	167897	3.01
3.347	161638	2.90
3.350	151703	2.72
3.353	139345	2.50
3.357	127102	2.28
3.360	115393	2.07
3.363	103722	1.86
3.367	94499	1.70
3.370	87793	1.58
3.373	84185	1.51
3.377	81273	1.46
3.380	80222	1.44
3.383	81351	1.46
3.387	83529	1.50
3.390	86494	1.55
3.393	91890	1.65
3.397	98719	1.77
3.400	107063	1.92
3.403	117647	2.11
3.407	129218	2.32
3.410	142815	2.56
3.413	157917	2.83
3.417	172355	3.09
3.420	185272	3.33
3.423	197877	3.55
3.427	210882	3.79
3.430	222928	4.00
3.433	234199	4.20
3.437	243558	4.37
3.440	248932	4.47
3.443	248931	4.47
3.447	243361	4.37
3.450	230887	4.14
3.453	213443	3.83
3.457	192999	3.46
3.460	172349	3.09
3.463	155241	2.79
3.467	141584	2.54
3.470	130854	2.35
3.473	124459	2.23
3.477	124459	2.23
3.480	129074	2.32
3.483	136817	2.46
3.487	148149	2.66
3.490	159886	2.87
3.493	169730	3.05
3.497	179042	3.21
3.500	185757	3.33
3.503	188489	3.38
3.507	185669	3.33
3.510	180020	3.23
3.513	174982	3.14
3.517	171423	3.08
3.520	167341	3.00
3.523	167028	3.00
3.527	171276	3.07
3.530	180515	3.24
3.533	196843	3.53
3.537	219048	3.93
3.540	244507	4.39
3.543	269125	4.83
3.547	289105	5.19
3.550	301833	5.42
3.553	305192	5.48
3.557	301502	5.41
3.560	288564	5.18
3.563	266738	4.79
3.567	241255	4.33
3.570	216016	3.88
3.573	193097	3.47
3.577	174952	3.14
3.580	160937	2.89
3.583	153432	2.75
3.587	153809	2.76
3.590	165099	2.96
3.593	183993	3.30
3.597	209662	3.76
3.600	241280	4.33
3.603	274584	4.93
3.607	304986	5.47
3.610	328493	5.90
3.613	339936	6.10
3.617	339862	6.10
3.620	330328	5.93
3.623	317306	5.70
3.627	302292	5.43
3.630	284492	5.11
3.633	269820	4.84
3.637	265066	4.76
3.640	272092	4.88
3.643	292041	5.24
3.647	328586	5.90
3.650	381229	6.84
3.653	450802	8.09
3.657	536006	9.62
3.660	628905	11.29
3.663	724996	13.01
3.667	819160	14.70
3.670	900590	16.17
3.673	955389	17.15
3.677	979972	17.59
3.680	969348	17.40
3.683	919687	16.51
3.687	845492	15.18
3.690	759702	13.64
3.693	668938	12.01
3.697	582371	10.45
3.700	505803	9.08
3.703	442610	7.95
3.707	395829	7.11
3.710	367999	6.61
3.713	352681	6.33
3.717	345409	6.20
3.720	344791	6.19
3.723	348069	6.25
3.727	352394	6.33
3.730	352336	6.32
3.733	344270	6.18
3.737	328593	5.90
3.740	308118	5.53
3.743	283666	5.09
3.747	255085	4.58
3.750	224832	4.04
3.753	197542	3.55
3.757	174881	3.14
3.760	158326	2.84
3.763	147170	2.64
3.767	139957	2.51
3.770	139950	2.51
3.773	147172	2.64
3.777	158263	2.84
3.780	172301	3.09
3.783	190407	3.42
3.787	210474	3.78
3.790	230055	4.13
3.793	248204	4.46
3.797	263209	4.72
3.800	272691	4.89
3.803	274512	4.93
3.807	271733	4.88
3.810	267222	4.80
3.813	262954	4.72
3.817	255323	4.58
3.820	245213	4.40
3.823	234990	4.22
3.827	226971	4.07
3.830	219421	3.94
3.833	210848	3.78
3.837	203417	3.65
3.840	195533	3.51
3.843	188031	3.38
3.847	183066	3.29
3.850	181187	3.25
3.853	180981	3.25
3.857	183578	3.30
3.860	191920	3.45
3.863	203661	3.66
3.867	220473	3.96
3.870	241750	4.34
3.873	264214	4.74
3.877	284731	5.11
3.880	300863	5.40
3.883	310600	5.58
3.887	314074	5.64
3.890	310597	5.58
3.893	300913	5.40
3.897	289635	5.20
3.900	277675	4.98
3.903	266510	4.78
3.907	259925	4.67
3.910	261029	4.69
3.913	272252	4.89
3.917	293140	5.26
3.920	323521	5.81
3.923	360139	6.46
3.927	397931	7.14
3.930	433448	7.78
3.933	458203	8.23
3.937	471435	8.46
3.940	473314	8.50
3.943	460132	8.26
3.947	434753	7.80
3.950	401333	7.20
3.953	363241	6.52
3.957	331226	5.95
3.960	309171	5.55
3.963	295913	5.31
3.967	293750	5.27
3.970	300708	5.40
3.973	314013	5.64
3.977	329464	5.91
3.980	339655	6.10
3.983	344267	6.18
3.987	342043	6.14
3.990	331221	5.95
3.993	315803	5.67
3.997	299684	5.38
4.000	281724	5.06
4.003	264289	4.74
4.007	251822	4.52
4.010	246257	4.42
4.013	246372	4.42
4.017	254217	4.56
4.020	266736	4.79
4.023	279636	5.02
4.027	291819	5.24
4.030	305039	5.48
4.033	318601	5.72
4.037	332023	5.96
4.040	348653	6.26
4.043	367414	6.60
4.047	388763	6.98
4.050	414234	7.44
4.053	441696	7.93
4.057	470324	8.44
4.060	496769	8.92
4.063	519900	9.33
4.067	538800	9.67
4.070	551958	9.91
4.073	561001	10.07
4.077	563433	10.11
4.080	557036	10.00
4.083	543343	9.75
4.087	520482	9.34
4.090	489846	8.79
4.093	451596	8.11
4.097	412330	7.40
4.100	377074	6.77
4.103	344335	6.18
4.107	316591	5.68
4.110	298096	5.35
4.113	290878	5.22
4.117	298076	5.35
4.120	317475	5.70
4.123	344553	6.18
4.127	380223	6.83
4.130	420722	7.55
4.133	464430	8.34
4.137	506248	9.09
4.140	538730	9.67
4.143	561105	10.07
4.147	571686	10.26
4.150	566075	10.16
4.153	550749	9.89
4.157	530278	9.52
4.160	501286	9.00
4.163	464854	8.34
4.167	425442	7.64
4.170	384113	6.90
4.173	343096	6.16
4.177	304672	5.47
4.180	272785	4.90
4.183	244797	4.39
4.187	220312	3.95
4.190	200960	3.61
4.193	186093	3.34
4.197	176079	3.16
4.200	173936	3.12
4.203	187901	3.37
4.207	228157	4.10
4.210	301876	5.42
4.213	420755	7.55
4.217	601764	10.80
4.220	850995	15.28
4.223	1159618	20.82
4.227	1519807	27.28
4.230	1897520	34.06
4.233	2252213	40.43
4.237	2575368	46.23
4.240	2831371	50.83
4.243	2967513	53.27
4.247	2962969	53.19
4.250	2825270	50.72
4.253	2589155	46.48
4.257	2289827	41.10
4.260	1945731	34.93
4.263	1589558	28.53
4.267	1262250	22.66
4.270	988822	17.75
4.273	778759	13.98
4.277	627625	11.27
4.280	524325	9.41
4.283	460474	8.27
4.287	427650	7.68
4.290	417461	7.49
4.293	423224	7.60
4.297	436810	7.84
4.300	450654	8.09
4.303	457964	8.22
4.307	455248	8.17
4.310	443900	7.97
4.313	421222	7.56
4.317	388078	6.97
4.320	349029	6.27
4.323	307882	5.53
4.327	268433	4.82
4.330	233469	4.19
4.333	205271	3.68
4.337	185790	3.34
4.340	176159	3.16
4.343	173258	3.11
4.347	176576	3.17
4.350	185336	3.33
4.353	196206	3.52
4.357	208435	3.74
4.360	218235	3.92
4.363	223030	4.00
4.367	225334	4.04
4.370	225589	4.05
4.373	225684	4.05
4.377	225521	4.05
4.380	225545	4.05
4.383	229770	4.12
4.387	238869	4.29
4.390	252289	4.53
4.393	270239	4.85
4.397	290549	5.22
4.400	311391	5.59
4.403	330834	5.94
4.407	343899	6.17
4.410	350860	6.30
4.413	351067	6.30
4.417	345983	6.21
4.420	339326	6.09
4.423	330611	5.93
4.427	320356	5.75
4.430	309997	5.56
4.433	294567	5.29
4.437	277079	4.97
4.440	262004	4.70
4.443	249549	4.48
4.447	239078	4.29
4.450	232984	4.18
4.453	231752	4.16
4.457	232980	4.18
4.460	237016	4.25
4.463	243117	4.36
4.467	249557	4.48
4.470	256700	4.61
4.473	264752	4.75
4.477	274084	4.92
4.480	284294	5.10
4.483	294583	5.29
4.487	304745	5.47
4.490	318021	5.71
4.493	336692	6.04
4.497	359165	6.45
4.500	384116	6.90
4.503	412144	7.40
4.507	446738	8.02
4.510	486180	8.73
4.513	525909	9.44
4.517	562542	10.10
4.520	592173	10.63
4.523	615092	11.04
4.527	629996	11.31
4.530	633938	11.38
4.533	621684	11.16
4.537	595576	10.69
4.540	564128	10.13
4.543	531881	9.55
4.547	503149	9.03
4.550	481574	8.64
4.553	469388	8.43
4.557	466695	8.38
4.560	471698	8.47
4.563	479621	8.61
4.567	488459	8.77
4.570	497889	8.94
4.573	504632	9.06
4.577	504604	9.06
4.580	499726	8.97
4.583	496328	8.91
4.587	495234	8.89
4.590	495812	8.90
4.593	499724	8.97
4.597	508843	9.13
4.600	532395	9.56
4.603	578650	10.39
4.607	652384	11.71
4.610	757560	13.60
4.613	887125	15.92
4.617	1028044	18.45
4.620	1161518	20.85
4.623	1265762	22.72
4.627	1335823	23.98
4.630	1355534	24.33
4.633	1305917	23.44
4.637	1201571	21.57
4.640	1063711	19.09
4.643	912735	16.38
4.647	768929	13.80
4.650	645432	11.59
4.653	551996	9.91
4.657	489963	8.80
4.660	452936	8.13
4.663	429677	7.71
4.667	414358	7.44
4.670	403333	7.24
4.673	389330	6.99
4.677	367259	6.59
4.680	341398	6.13
4.683	317268	5.70
4.687	296498	5.32
4.690	283499	5.09
4.693	279949	5.03
4.697	283494	5.09
4.700	293108	5.26
4.703	314855	5.65
4.707	350259	6.29
4.710	396458	7.12
4.713	453280	8.14
4.717	516936	9.28
4.720	586171	10.52
4.723	660877	11.86
4.727	728284	13.07
4.730	776038	13.93
4.733	803185	14.42
4.737	807751	14.50
4.740	786845	14.12
4.743	739446	13.27
4.747	672199	12.07
4.750	598724	10.75
4.753	534917	9.60
4.757	490650	8.81
4.760	468373	8.41
4.763	462754	8.31
4.767	470049	8.44
4.770	489483	8.79
4.773	515138	9.25
4.777	537260	9.64
4.780	552352	9.92
4.783	565552	10.15
4.787	577422	10.37
4.790	580777	10.43
4.793	577545	10.37
4.797	573941	10.30
4.800	565552	10.15
4.803	549865	9.87
4.807	529068	9.50
4.810	503981	9.05
4.813	477480	8.57
4.817	451045	8.10
4.820	425965	7.65
4.823	403719	7.25
4.827	385744	6.92
4.830	374461	6.72
4.833	368585	6.62
4.837	368519	6.62
4.840	370836	6.66
4.843	376517	6.76
4.847	385569	6.92
4.850	396198	7.11
4.853	408518	7.33
4.857	419695	7.53
4.860	423722	7.61
4.863	419695	7.53
4.867	412350	7.40
4.870	404578	7.26
4.873	396768	7.12
4.877	389237	6.99
4.880	383396	6.88
4.883	385846	6.93
4.887	404424	7.26
4.890	436118	7.83
4.893	477654	8.57
4.897	529022	9.50
4.900	590403	10.60
4.903	659829	11.84
4.907	733339	13.16
4.910	801989	14.40
4.913	860434	15.45
4.917	898543	16.13
4.920	904240	16.23
4.923	883750	15.86
4.927	849429	15.25
4.930	801510	14.39
4.933	745161	13.38
4.937	690061	12.39
4.940	642098	11.53
4.943	605942	10.88
4.947	577789	10.37
4.950	548745	9.85
4.953	516681	9.27
4.957	485700	8.72
4.960	458822	8.24
4.963	432176	7.76
4.967	406367	7.29
4.970	389687	7.00
4.973	385311	6.92
4.977	394916	7.09
4.980	417119	7.49
4.983	442424	7.94
4.987	469647	8.43
4.990	494284	8.87
4.993	513027	9.21
4.997	525827	9.44
5.000	525881	9.44
5.003	513223	9.21
5.007	492040	8.83
5.010	458766	8.24
5.013	417326	7.49
5.017	377738	6.78
5.020	342742	6.15
5.023	313228	5.62
5.027	290794	5.22
5.030	278226	4.99
5.033	278163	4.99
5.037	285788	5.13
5.040	297242	5.34
5.043	310437	5.57
5.047	324738	5.83
5.050	337146	6.05
5.053	344662	6.19
5.057	347531	6.24
5.060	347315	6.23
5.063	342889	6.16
5.067	339466	6.09
5.070	337179	6.05
5.073	334207	6.00
5.077	331024	5.94
5.080	328891	5.90
5.083	328974	5.91
5.087	333233	5.98
5.090	342806	6.15
5.093	355552	6.38
5.097	367521	6.60
5.100	379494	6.81
5.103	387630	6.96
5.107	391514	7.03
5.110	395055	7.09
5.113	395495	7.10
5.117	395218	7.09
5.120	394767	7.09
5.123	395233	7.09
5.127	400425	7.19
5.130	406394	7.30
5.133	412955	7.41
5.137	422917	7.59
5.140	437430	7.85
5.143	453534	8.14
5.147	469795	8.43
5.150	493030	8.85
5.153	529395	9.50
5.157	583877	10.48
5.160	659894	11.85
5.163	756615	13.58
5.167	867059	15.56
5.170	980522	17.60
5.173	1073875	19.28
5.177	1134425	20.36
5.180	1169561	20.99
5.183	1170307	21.01
5.187	1130933	20.30
5.190	1059216	19.01
5.193	972993	17.47
5.197	887895	15.94
5.200	811296	14.56
5.203	752054	13.50
5.207	710012	12.75
5.210	686116	12.32
5.213	684188	12.28
5.217	687037	12.33
5.220	684315	12.28
5.223	676158	12.14
5.227	656425	11.78
5.230	624006	11.20
5.233	582449	10.46
5.237	532081	9.55
5.240	478214	8.58
5.243	430453	7.73
5.247	391107	7.02
5.250	360078	6.46
5.253	336930	6.05
5.257	318672	5.72
5.260	309998	5.56
5.263	313909	5.63
5.267	326963	5.87
5.270	347081	6.23
5.273	378516	6.79
5.277	422554	7.59
5.280	471347	8.46
5.283	520138	9.34
5.287	566574	10.17
5.290	605210	10.86
5.293	635240	11.40
5.297	661238	11.87
5.300	679140	12.19
5.303	685137	12.30
5.307	684966	12.30
5.310	682148	12.25
5.313	677009	12.15
5.317	668192	11.99
5.320	650387	11.67
5.323	621553	11.16
5.327	588210	10.56
5.330	552385	9.92
5.333	515312	9.25
5.337	485623	8.72
5.340	469184	8.42
5.343	470510	8.45
5.347	503053	9.03
5.350	570651	10.24
5.353	664363	11.93
5.357	774021	13.89
5.360	894333	16.05
5.363	1011405	18.16
5.367	1103565	19.81
5.370	1155313	20.74
5.373	1156167	20.75
5.377	1110578	19.94
5.380	1032638	18.54
5.383	934704	16.78
5.387	833633	14.96
5.390	749284	13.45
5.393	686283	12.32
5.397	640826	11.50
5.400	610782	10.96
5.403	593636	10.66
5.407	581884	10.45
5.410	569295	10.22
5.413	551870	9.91
5.417	533961	9.58
5.420	523284	9.39
5.423	522231	9.37
5.427	533976	9.59
5.430	569485	10.22
5.433	632018	11.35
5.437	714826	12.83
5.440	810215	14.54
5.443	908028	16.30
5.447	997570	17.91
5.450	1067712	19.17
5.453	1111024	19.94
5.457	1127103	20.23
5.460	1116839	20.05
5.463	1087016	19.51
5.467	1052081	18.89
5.470	1022836	18.36
5.473	997640	17.91
5.477	977551	17.55
5.480	956593	17.17
5.483	920819	16.53
5.487	870330	15.62
5.490	811473	14.57
5.493	753250	13.52
5.497	701881	12.60
5.500	661403	11.87
5.503	642729	11.54
5.507	648116	11.63
5.510	666394	11.96
5.513	690383	12.39
5.517	718748	12.90
5.520	748977	13.44
5.523	773185	13.88
5.527	788631	14.16
5.530	791378	14.21
5.533	773183	13.88
5.537	737090	13.23
5.540	692605	12.43
5.543	641791	11.52
5.547	586765	10.53
5.550	537364	9.65
5.553	498424	8.95
5.557	469869	8.43
5.560	452221	8.12
5.563	443728	7.97
5.567	444656	7.98
5.570	455890	8.18
5.573	468218	8.40
5.577	475621	8.54
5.580	473931	8.51
5.583	466290	8.37
5.587	458018	8.22
5.590	444902	7.99
5.593	426162	7.65
5.597	411804	7.39
5.600	403766	7.25
5.603	400854	7.20
5.607	402945	7.23
5.610	407195	7.31
5.613	414074	7.43
5.617	424957	7.63
5.620	434659	7.80
5.623	445636	8.00
5.627	466597	8.38
5.630	495210	8.89
5.633	526244	9.45
5.637	560546	10.06
5.640	597781	10.73
5.643	632825	11.36
5.647	661477	11.87
5.650	678984	12.19
5.653	678984	12.19
5.657	668517	12.00
5.660	654337	11.75
5.663	633909	11.38
5.667	612484	10.99
5.670	592752	10.64
5.673	574362	10.31
5.677	562450	10.10
5.680	560276	10.06
5.683	568227	10.20
5.687	587774	10.55
5.690	615709	11.05
5.693	648787	11.65
5.697	683853	12.28
5.700	715673	12.85
5.703	741290	13.31
5.707	759631	13.64
5.710	766012	13.75
5.713	767473	13.78
5.717	776324	13.94
5.720	791120	14.20
5.723	812836	14.59
5.727	843362	15.14
5.730	880660	15.81
5.733	920769	16.53
5.737	964470	17.31
5.740	1016374	18.24
5.743	1071545	19.23
5.747	1122303	20.15
5.750	1160257	20.83
5.753	1174630	21.09
5.757	1167945	20.97
5.760	1144930	20.55
5.763	1107765	19.89
5.767	1061538	19.06
5.770	1012318	18.17
5.773	973549	17.48
5.777	946948	17.00
5.780	920070	16.52
5.783	895212	16.07
5.787	884148	15.87
5.790	887857	15.94
5.793	901874	16.19
5.797	924223	16.59
5.800	956152	17.16
5.803	995195	17.86
5.807	1025726	18.41
5.810	1042991	18.72
5.813	1051852	18.88
5.817	1044721	18.75
5.820	1012416	18.17
5.823	962857	17.28
5.827	908111	16.30
5.830	852514	15.30
5.833	798873	14.34
5.837	752094	13.50
5.840	712374	12.79
5.843	681890	12.24
5.847	662458	11.89
5.850	649381	11.66
5.853	637271	11.44
5.857	621724	11.16
5.860	603651	10.84
5.863	588302	10.56
5.867	572438	10.28
5.870	554172	9.95
5.873	544717	9.78
5.877	554603	9.96
5.880	578538	10.39
5.883	613333	11.01
5.887	657769	11.81
5.890	708727	12.72
5.893	760309	13.65
5.897	804541	14.44
5.900	837141	15.03
5.903	850040	15.26
5.907	844512	15.16
5.910	831056	14.92
5.913	812675	14.59
5.917	791259	14.20
5.920	766813	13.76
5.923	739235	13.27
5.927	708756	12.72
5.930	674775	12.11
5.933	637072	11.44
5.937	600156	10.77
5.940	572217	10.27
5.943	556900	10.00
5.947	557778	10.01
5.950	588413	10.56
5.953	679981	12.21
5.957	866711	15.56
5.960	1169664	21.00
5.963	1607691	28.86
5.967	2190566	39.32
5.970	2884230	51.77
5.973	3621643	65.01
5.977	4335541	77.83
5.980	4952077	88.89
5.983	5386604	96.69
5.987	5570821	100.00
5.990	5514018	98.98
5.993	5237430	94.02
5.997	4704967	84.46
6.000	3961722	71.12
6.003	3173903	56.97
6.007	2469475	44.33
6.010	1888261	33.90
6.013	1455192	26.12
6.017	1173203	21.06
6.020	1004919	18.04
6.023	906567	16.27
6.027	843350	15.14
6.030	793865	14.25
6.033	758532	13.62
6.037	738713	13.26
6.040	730323	13.11
6.043	735303	13.20
6.047	758786	13.62
6.050	800201	14.36
6.053	851468	15.28
6.057	903592	16.22
6.060	946563	16.99
6.063	975151	17.50
6.067	993620	17.84
6.070	1006004	18.06
6.073	1002197	17.99
6.077	970956	17.43
6.080	922945	16.57
6.083	874230	15.69
6.087	822001	14.76
6.090	758986	13.62
6.093	694172	12.46
6.097	632373	11.35
6.100	573311	10.29
6.103	520403	9.34
6.107	474731	8.52
6.110	438593	7.87
6.113	413976	7.43
6.117	400163	7.18
6.120	396821	7.12
6.123	408941	7.34
6.127	435705	7.82
6.130	471876	8.47
6.133	516768	9.28
6.137	573250	10.29
6.140	637578	11.44
6.143	696978	12.51
6.147	745962	13.39
6.150	776206	13.93
6.153	774187	13.90
6.157	748579	13.44
6.160	709869	12.74
6.163	663398	11.91
6.167	615107	11.04
6.170	570893	10.25
6.173	538446	9.67
6.177	520466	9.34
6.180	520072	9.34
6.183	532346	9.56
6.187	551699	9.90
6.190	576641	10.35
6.193	602170	10.81
6.197	619256	11.12
6.200	632662	11.36
6.203	646002	11.60
6.207	650825	11.68
6.210	644323	11.57
6.213	637262	11.44
6.217	637271	11.44
6.220	640927	11.51
6.223	643898	11.56
6.227	648124	11.63
6.230	655372	11.76
6.233	662020	11.88
6.237	671432	12.05
6.240	689701	12.38
6.243	710220	12.75
6.247	728629	13.08
6.250	748370	13.43
6.253	767629	13.78
6.257	784565	14.08
6.260	790230	14.19
6.263	776456	13.94
6.267	748646	13.44
6.270	721340	12.95
6.273	699542	12.56
6.277	680261	12.21
6.280	662446	11.89
6.283	647962	11.63
6.287	637741	11.45
6.290	634625	11.39
6.293	634965	11.40
6.297	635326	11.40
6.300	635355	11.41
6.303	633829	11.38
6.307	627373	11.26
6.310	619996	11.13
6.313	609459	10.94
6.317	593195	10.65
6.320	574175	10.31
6.323	552927	9.93
6.327	532500	9.56
6.330	522852	9.39
6.333	529015	9.50
6.337	553089	9.93
6.340	598785	10.75
6.343	659700	11.84
6.347	725052	13.02
6.350	789929	14.18
6.353	845537	15.18
6.357	877012	15.74
6.360	879582	15.79
6.363	864980	15.53
6.367	846754	15.20
6.370	828503	14.87
6.373	817321	14.67
6.377	828518	14.87
6.380	872220	15.66
6.383	948183	17.02
6.387	1047415	18.80
6.390	1156266	20.76
6.393	1253538	22.50
6.397	1323215	23.75
6.400	1365934	24.52
6.403	1381931	24.81
6.407	1381182	24.79
6.410	1384496	24.85
6.413	1405096	25.22
6.417	1422299	25.53
6.420	1408838	25.29
6.423	1364558	24.49
6.427	1298034	23.30
6.430	1206618	21.66
6.433	1086381	19.50
6.437	957676	17.19
6.440	843732	15.15
6.443	746693	13.40
6.447	666864	11.97
6.450	600246	10.77
6.453	541408	9.72
6.457	496750	8.92
6.460	462639	8.30
6.463	435428	7.82
6.467	416677	7.48
6.470	406347	7.29
6.473	406546	7.30
6.477	418088	7.50
6.480	432021	7.76
6.483	442603	7.95
6.487	449828	8.07
6.490	454096	8.15
6.493	456151	8.19
6.497	455895	8.18
6.500	453732	8.14
6.503	452235	8.12
6.507	453027	8.13
6.510	459474	8.25
6.513	470747	8.45
6.517	490109	8.80
6.520	519676	9.33
6.523	553693	9.94
6.527	588908	10.57
6.530	627645	11.27
6.533	670252	12.03
6.537	709623	12.74
6.540	738529	13.26
6.543	750622	13.47
6.547	747434	13.42
6.550	736317	13.22
6.553	718973	12.91
6.557	698224	12.53
6.560	679646	12.20
6.563	665862	11.95
6.567	655373	11.76
6.570	643887	11.56
6.573	631486	11.34
6.577	619076	11.11
6.580	603139	10.83
6.583	580655	10.42
6.587	553690	9.94
6.590	533168	9.57
6.593	522152	9.37
6.597	521469	9.36
6.600	531793	9.55
6.603	548947	9.85
6.607	567250	10.18
6.610	580846	10.43
6.613	586634	10.53
6.617	584647	10.49
6.620	572276	10.27
6.623	557196	10.00
6.627	553656	9.94
6.630	572195	10.27
6.633	629042	11.29
6.637	739443	13.27
6.640	903906	16.23
6.643	1111946	19.96
6.647	1346941	24.18
6.650	1587462	28.50
6.653	1809932	32.49
6.657	1979058	35.53
6.660	2064677	37.06
6.663	2059412	36.97
6.667	1970395	35.37
6.670	1812763	32.54
6.673	1617380	29.03
6.677	1426207	25.60
6.680	1265631	22.72
6.683	1140323	20.47
6.687	1045811	18.77
6.690	978716	17.57
6.693	930833	16.71
6.697	890100	15.98
6.700	846320	15.19
6.703	797597	14.32
6.707	750877	13.48
6.710	710574	12.76
6.713	674652	12.11
6.717	639452	11.48
6.720	605353	10.87
6.723	570982	10.25
6.727	532085	9.55
6.730	489455	8.79
6.733	448839	8.06
6.737	415606	7.46
6.740	392537	7.05
6.743	387491	6.96
6.747	402861	7.23
6.750	434169	7.79
6.753	475653	8.54
6.757	523841	9.40
6.760	578632	10.39
6.763	636218	11.42
6.767	689557	12.38
6.770	736003	13.21
6.773	767953	13.79
6.777	777270	13.95
6.780	767920	13.78
6.783	745503	13.38
6.787	709414	12.73
6.790	657358	11.80
6.793	600990	10.79
6.797	554108	9.95
6.800	515972	9.26
6.803	484175	8.69
6.807	461299	8.28
6.810	448479	8.05
6.813	441561	7.93
6.817	439413	7.89
6.820	442863	7.95
6.823	448672	8.05
6.827	454519	8.16
6.830	459820	8.25
6.833	464617	8.34
6.837	470784	8.45
6.840	480642	8.63
6.843	498476	8.95
6.847	523164	9.39
6.850	552632	9.92
6.853	592664	10.64
6.857	640106	11.49
6.860	689627	12.38
6.863	737265	13.23
6.867	766822	13.76
6.870	775245	13.92
6.873	775161	13.91
6.877	768384	13.79
6.880	757034	13.59
6.883	738848	13.26
6.887	716980	12.87
6.890	693973	12.46
6.893	666410	11.96
6.897	639919	11.49
6.900	620650	11.14
6.903	610922	10.97
6.907	616223	11.06
6.910	640569	11.50
6.913	683635	12.27
6.917	737553	13.24
6.920	799056	14.34
6.923	867040	15.56
6.927	945833	16.98
6.930	1031934	18.52
6.933	1120427	20.11
6.937	1216901	21.84
6.940	1311577	23.54
6.943	1380022	24.77
6.947	1417722	25.45
6.950	1426850	25.61
6.953	1399941	25.13
6.957	1337062	24.00
6.960	1245106	22.35
6.963	1134400	20.36
6.967	1012653	18.18
6.970	894199	16.05
6.973	789822	14.18
6.977	702145	12.60
6.980	635410	11.41
6.983	591476	10.62
6.987	564921	10.14
6.990	547434	9.83
6.993	537493	9.65
6.997	532875	9.57
7.000	527316	9.47
7.003	526678	9.45
7.007	532944	9.57
7.010	547671	9.83
7.013	576694	10.35
7.017	628870	11.29
7.020	712419	12.79
7.023	828253	14.87
7.027	969723	17.41
7.030	1131328	20.31
7.033	1301519	23.36
7.037	1455641	26.13
7.040	1562244	28.04
7.043	1596148	28.65
7.047	1558131	27.97
7.050	1457978	26.17
7.053	1311867	23.55
7.057	1141405	20.49
7.060	963820	17.30
7.063	804975	14.45
7.067	680013	12.21
7.070	589624	10.58
7.073	534742	9.60
7.077	509893	9.15
7.080	505828	9.08
7.083	511561	9.18
7.087	518870	9.31
7.090	523444	9.40
7.093	523556	9.40
7.097	522708	9.38
7.100	514578	9.24
7.103	501209	9.00
7.107	491197	8.82
7.110	491196	8.82
7.113	507084	9.10
7.117	544695	9.78
7.120	600455	10.78
7.123	666994	11.97
7.127	742228	13.32
7.130	826201	14.83
7.133	922264	16.56
7.137	1023257	18.37
7.140	1114680	20.01
7.143	1190081	21.36
7.147	1242475	22.30
7.150	1259304	22.61
7.153	1228672	22.06
7.157	1152179	20.68
7.160	1052088	18.89
7.163	945178	16.97
7.167	837589	15.04
7.170	744220	13.36
7.173	676821	12.15
7.177	636815	11.43
7.180	619515	11.12
7.183	618433	11.10
7.187	628340	11.28
7.190	643741	11.56
7.193	658003	11.81
7.197	666208	11.96
7.200	662847	11.90
7.203	647085	11.62
7.207	620874	11.15
7.210	584949	10.50
7.213	540959	9.71
7.217	494603	8.88
7.220	456449	8.19
7.223	432594	7.77
7.227	420970	7.56
7.230	420962	7.56
7.233	430091	7.72
7.237	444864	7.99
7.240	464744	8.34
7.243	486193	8.73
7.247	506222	9.09
7.250	524125	9.41
7.253	534265	9.59
7.257	534390	9.59
7.260	532141	9.55
7.263	536262	9.63
7.267	553759	9.94
7.270	586870	10.53
7.273	636706	11.43
7.277	692596	12.43
7.280	746239	13.40
7.283	794236	14.26
7.287	831745	14.93
7.290	852920	15.31
7.293	850118	15.26
7.297	824596	14.80
7.300	789415	14.17
7.303	751706	13.49
7.307	710249	12.75
7.310	672706	12.08
7.313	643574	11.55
7.317	619650	11.12
7.320	603691	10.84
7.323	603788	10.84
7.327	629081	11.29
7.330	672713	12.08
7.333	725501	13.02
7.337	784046	14.07
7.340	843643	15.14
7.343	890713	15.99
7.347	910583	16.35
7.350	896935	16.10
7.353	856922	15.38
7.357	799793	14.36
7.360	731506	13.13
7.363	656891	11.79
7.367	583599	10.48
7.370	519642	9.33
7.373	472599	8.48
7.377	444029	7.97
7.380	427666	7.68
7.383	416490	7.48
7.387	414148	7.43
7.390	419892	7.54
7.393	429122	7.70
7.397	437015	7.84
7.400	442845	7.95
7.403	447303	8.03
7.407	453193	8.14
7.410	455261	8.17
7.413	450816	8.09
7.417	444832	7.99
7.420	437009	7.84
7.423	424473	7.62
7.427	414567	7.44
7.430	415575	7.46
7.433	429033	7.70
7.437	451145	8.10
7.440	484243	8.69
7.443	525614	9.44
7.447	568147	10.20
7.450	608164	10.92
7.453	646646	11.61
7.457	681914	12.24
7.460	712494	12.79
7.463	743543	13.35
7.467	783427	14.06
7.470	839132	15.06
7.473	910611	16.35
7.477	988114	17.74
7.480	1057899	18.99
7.483	1109218	19.91
7.487	1138001	20.43
7.490	1137344	20.42
7.493	1102072	19.78
7.497	1050904	18.86
7.500	997944	17.91
7.503	937250	16.82
7.507	870427	15.62
7.510	813466	14.60
7.513	778566	13.98
7.517	763869	13.71
7.520	765408	13.74
7.523	792998	14.23
7.527	847645	15.22
7.530	911252	16.36
7.533	972472	17.46
7.537	1023835	18.38
7.540	1052725	18.90
7.543	1048851	18.83
7.547	1008814	18.11
7.550	943435	16.94
7.553	864283	15.51
7.557	783980	14.07
7.560	722415	12.97
7.563	684160	12.28
7.567	668539	12.00
7.570	677899	12.17
7.573	702347	12.61
7.577	731881	13.14
7.580	763793	13.71
7.583	799933	14.36
7.587	856069	15.37
7.590	965810	17.34
7.593	1175227	21.10
7.597	1531170	27.49
7.600	2058851	36.96
7.603	2724270	48.90
7.607	3463916	62.18
7.610	4204569	75.47
7.613	4839388	86.87
7.617	5264186	94.50
7.620	5391552	96.78
7.623	5223989	93.77
7.627	4818319	86.49
7.630	4188156	75.18
7.633	3414050	61.28
7.637	2650927	47.59
7.640	2019096	36.24
7.643	1554349	27.90
7.647	1242815	22.31
7.650	1056379	18.96
7.653	955176	17.15
7.657	904384	16.23
7.660	874260	15.69
7.663	853405	15.32
7.667	840193	15.08
7.670	825383	14.82
7.673	798258	14.33
7.677	757133	13.59
7.680	709423	12.73
7.683	659029	11.83
7.687	612134	10.99
7.690	570485	10.24
7.693	532384	9.56
7.697	502068	9.01
7.700	477438	8.57
7.703	456889	8.20
7.707	440463	7.91
7.710	426290	7.65
7.713	414928	7.45
7.717	405278	7.28
7.720	399151	7.17
7.723	400481	7.19
7.727	405902	7.29
7.730	414966	7.45
7.733	426636	7.66
7.737	437241	7.85
7.740	446400	8.01
7.743	454060	8.15
7.747	459342	8.25
7.750	465704	8.36
7.753	475311	8.53
7.757	484282	8.69
7.760	486708	8.74
7.763	486434	8.73
7.767	485664	8.72
7.770	481361	8.64
7.773	472760	8.49
7.777	469088	8.42
7.780	476744	8.56
7.783	496843	8.92
7.787	546599	9.81
7.790	642466	11.53
7.793	781347	14.03
7.797	960269	17.24
7.800	1177806	21.14
7.803	1405621	25.23
7.807	1601562	28.75
7.810	1724506	30.96
7.813	1755025	31.50
7.817	1700537	30.53
7.820	1564609	28.09
7.823	1363760	24.48
7.827	1139936	20.46
7.830	926158	16.63
7.833	741749	13.31
7.837	600340	10.78
7.840	504428	9.05
7.843	445227	7.99
7.847	410292	7.37
7.850	390197	7.00
7.853	378536	6.79
7.857	376139	6.75
7.860	384980	6.91
7.863	401215	7.20
7.867	419791	7.54
7.870	441083	7.92
7.873	463528	8.32
7.877	483039	8.67
7.880	490026	8.80
7.883	477633	8.57
7.887	450331	8.08
7.890	417071	7.49
7.893	384710	6.91
7.897	355615	6.38
7.900	334552	6.01
7.903	326365	5.86
7.907	331029	5.94
7.910	349017	6.27
7.913	381788	6.85
7.917	426402	7.65
7.920	478380	8.59
7.923	534278	9.59
7.927	587333	10.54
7.930	629307	11.30
7.933	656113	11.78
7.937	667584	11.98
7.940	662556	11.89
7.943	642613	11.54
7.947	613467	11.01
7.950	576078	10.34
7.953	533969	9.59
7.957	494437	8.88
7.960	456275	8.19
7.963	416976	7.49
7.967	379775	6.82
7.970	351089	6.30
7.973	331099	5.94
7.977	316933	5.69
7.980	307602	5.52
7.983	301798	5.42
7.987	297498	5.34
7.990	292343	5.25
7.993	289177	5.19
7.997	290038	5.21
8.000	297999	5.35
8.003	312482	5.61
8.007	332582	5.97
8.010	359484	6.45
8.013	389636	6.99
8.017	418003	7.50
8.020	446598	8.02
8.023	477953	8.58
8.027	513158	9.21
8.030	559551	10.04
8.033	618282	11.10
8.037	689681	12.38
8.040	777235	13.95
8.043	871752	15.65
8.047	946448	16.99
8.050	985548	17.69
8.053	997670	17.91
8.057	979425	17.58
8.060	920673	16.53
8.063	834923	14.99
8.067	737398	13.24
8.070	632535	11.35
8.073	533885	9.58
8.077	452860	8.13
8.080	390098	7.00
8.083	347004	6.23
8.087	318843	5.72
8.090	300997	5.40
8.093	291456	5.23
8.097	288273	5.17
8.100	288185	5.17
8.103	290508	5.21
8.107	296247	5.32
8.110	304059	5.46
8.113	313474	5.63
8.117	325488	5.84
8.120	337612	6.06
8.123	349079	6.27
8.127	360935	6.48
8.130	369599	6.63
8.133	374415	6.72
8.137	371853	6.68
8.140	362558	6.51
8.143	348938	6.26
8.147	332559	5.97
8.150	318816	5.72
8.153	309882	5.56
8.157	307011	5.51
8.160	315517	5.66
8.163	335337	6.02
8.167	362581	6.51
8.170	394594	7.08
8.173	426146	7.65
8.177	451872	8.11
8.180	465322	8.35
8.183	464079	8.33
8.187	451637	8.11
8.190	431763	7.75
8.193	410253	7.36
8.197	389600	6.99
8.200	375890	6.75
8.203	375831	6.75
8.207	389461	6.99
8.210	412518	7.40
8.213	442516	7.94
8.217	479743	8.61
8.220	517983	9.30
8.223	549427	9.86
8.227	573958	10.30
8.230	587792	10.55
8.233	584505	10.49
8.237	569169	10.22
8.240	546978	9.82
8.243	516927	9.28
8.247	484021	8.69
8.250	450373	8.08
8.253	414736	7.44
8.257	380125	6.82
8.260	346988	6.23
8.263	314662	5.65
8.267	284962	5.12
8.270	263336	4.73
8.273	255208	4.58
8.277	260952	4.68
8.280	279090	5.01
8.283	310893	5.58
8.287	359261	6.45
8.290	423209	7.60
8.293	495593	8.90
8.297	569097	10.22
8.300	638993	11.47
8.303	697132	12.51
8.307	738216	13.25
8.310	763032	13.70
8.313	766326	13.76
8.317	745495	13.38
8.320	708696	12.72
8.323	665895	11.95
8.327	612858	11.00
8.330	547467	9.83
8.333	480195	8.62
8.337	418708	7.52
8.340	372861	6.69
8.343	343061	6.16
8.347	327169	5.87
8.350	327169	5.87
8.353	342343	6.15
8.357	364175	6.54
8.360	388426	6.97
8.363	411247	7.38
8.367	429865	7.72
8.370	441881	7.93
8.373	441564	7.93
8.377	426149	7.65
8.380	407945	7.32
8.383	391200	7.02
8.387	377610	6.78
8.390	370607	6.65
8.393	370587	6.65
8.397	373380	6.70
8.400	375928	6.75
8.403	373273	6.70
8.407	365970	6.57
8.410	358533	6.44
8.413	354868	6.37
8.417	360047	6.46
8.420	377740	6.78
8.423	408322	7.33
8.427	447628	8.04
8.430	490971	8.81
8.433	533251	9.57
8.437	563492	10.12
8.440	578185	10.38
8.443	583157	10.47
8.447	580549	10.42
8.450	562540	10.10
8.453	533693	9.58
8.457	503478	9.04
8.460	471819	8.47
8.463	443223	7.96
8.467	421135	7.56
8.470	401351	7.20
8.473	383041	6.88
8.477	364679	6.55
8.480	345242	6.20
8.483	330740	5.94
8.487	324425	5.82
8.490	324939	5.83
8.493	337585	6.06
8.497	364827	6.55
8.500	401335	7.20
8.503	440013	7.90
8.507	477948	8.58
8.510	503535	9.04
8.513	507963	9.12
8.517	496865	8.92
8.520	472187	8.48
8.523	434939	7.81
8.527	391685	7.03
8.530	350231	6.29
8.533	313819	5.63
8.537	282824	5.08
8.540	258858	4.65
8.543	244074	4.38
8.547	235826	4.23
8.550	232782	4.18
8.553	234774	4.21
8.557	238413	4.28
8.560	241860	4.34
8.563	246378	4.42
8.567	255042	4.58
8.570	271964	4.88
8.573	303592	5.45
8.577	355463	6.38
8.580	429082	7.70
8.583	521162	9.36
8.587	622018	11.17
8.590	719324	12.91
8.593	787879	14.14
8.597	808165	14.51
8.600	792250	14.22
8.603	745270	13.38
8.607	671245	12.05
8.610	589218	10.58
8.613	513518	9.22
8.617	455552	8.18
8.620	418040	7.50
8.623	398750	7.16
8.627	396159	7.11
8.630	403485	7.24
8.633	419858	7.54
8.637	439803	7.89
8.640	451917	8.11
8.643	453660	8.14
8.647	444212	7.97
8.650	425412	7.64
8.653	403468	7.24
8.657	378158	6.79
8.660	355459	6.38
8.663	339934	6.10
8.667	334737	6.01
8.670	347633	6.24
8.673	383642	6.89
8.677	444209	7.97
8.680	532931	9.57
8.683	651145	11.69
8.687	793753	14.25
8.690	956503	17.17
8.693	1130152	20.29
8.697	1293812	23.22
8.700	1426970	25.62
8.703	1510544	27.12
8.707	1514007	27.18
8.710	1421940	25.52
8.713	1258555	22.59
8.717	1062902	19.08
8.720	860650	15.45
8.723	675849	12.13
8.727	540221	9.70
8.730	461931	8.29
8.733	425267	7.63
8.737	414089	7.43
8.740	415423	7.46
8.743	418548	7.51
8.747	415527	7.46
8.750	406306	7.29
8.753	392226	7.04
8.757	377660	6.78
8.760	366083	6.57
8.763	361010	6.48
8.767	362316	6.50
8.770	365599	6.56
8.773	367018	6.59
8.777	365532	6.56
8.780	356088	6.39
8.783	342417	6.15
8.787	327620	5.88
8.790	311906	5.60
8.793	298703	5.36
8.797	288120	5.17
8.800	279438	5.02
8.803	276839	4.97
8.807	277013	4.97
8.810	277229	4.98
8.813	277894	4.99
8.817	279048	5.01
8.820	279624	5.02
8.823	278134	4.99
8.827	272398	4.89
8.830	266043	4.78
8.833	260726	4.68
8.837	255637	4.59
8.840	251566	4.52
8.843	248764	4.47
8.847	247368	4.44
8.850	248858	4.47
8.853	259386	4.66
8.857	278186	4.99
8.860	304350	5.46
8.863	342028	6.14
8.867	392778	7.05
8.870	454215	8.15
8.873	519297	9.32
8.877	581265	10.43
8.880	632297	11.35
8.883	659426	11.84
8.887	654895	11.76
8.890	620027	11.13
8.893	566077	10.16
8.897	506937	9.10
8.900	447288	8.03
8.903	391169	7.02
8.907	344794	6.19
8.910	314051	5.64
8.913	297707	5.34
8.917	291192	5.23
8.920	289844	5.20
8.923	291842	5.24
8.927	295543	5.31
8.930	293978	5.28
8.933	285062	5.12
8.937	270642	4.86
8.940	251681	4.52
8.943	231262	4.15
8.947	211653	3.80
8.950	197660	3.55
8.953	189473	3.40
8.957	187797	3.37
8.960	187778	3.37
8.963	188930	3.39
8.967	194370	3.49
8.970	202838	3.64
8.973	211475	3.80
8.977	219187	3.93
8.980	225804	4.05
8.983	230057	4.13
8.987	232982	4.18
8.990	234007	4.20
8.993	233178	4.19
8.997	234749	4.21
9.000	244323	4.39
9.003	257084	4.61
9.007	271036	4.87
9.010	287116	5.15
9.013	302441	5.43
9.017	314001	5.64
9.020	323723	5.81
9.023	333937	5.99
9.027	342845	6.15
9.030	347353	6.24
9.033	347503	6.24
9.037	345009	6.19
9.040	339210	6.09
9.043	333837	5.99
9.047	327882	5.89
9.050	319030	5.73
9.053	308257	5.53
9.057	298721	5.36
9.060	289892	5.20
9.063	279602	5.02
9.067	271206	4.87
9.070	270484	4.86
9.073	272836	4.90
9.077	277414	4.98
9.080	285947	5.13
9.083	294776	5.29
9.087	302420	5.43
9.090	311990	5.60
9.093	322521	5.79
9.097	337251	6.05
9.100	373611	6.71
9.103	454439	8.16
9.107	609971	10.95
9.110	867490	15.57
9.113	1239822	22.26
9.117	1724109	30.95
9.120	2285945	41.03
9.123	2845154	51.07
9.127	3289079	59.04
9.130	3522266	63.23
9.133	3492018	62.68
9.137	3215730	57.72
9.140	2755970	49.47
9.143	2187869	39.27
9.147	1615097	28.99
9.150	1134761	20.37
9.153	788709	14.16
9.157	567686	10.19
9.160	436195	7.83
9.163	361211	6.48
9.167	320156	5.75
9.170	296913	5.33
9.173	283177	5.08
9.177	273352	4.91
9.180	266127	4.78
9.183	258864	4.65
9.187	250908	4.50
9.190	243081	4.36
9.193	239195	4.29
9.197	241300	4.33
9.200	248889	4.47
9.203	258570	4.64
9.207	269515	4.84
9.210	279226	5.01
9.213	284151	5.10
9.217	283828	5.09
9.220	276008	4.95
9.223	263513	4.73
9.227	250878	4.50
9.230	240888	4.32
9.233	236152	4.24
9.237	241821	4.34
9.240	258333	4.64
9.243	281972	5.06
9.247	311732	5.60
9.250	347632	6.24
9.253	390791	7.01
9.257	443493	7.96
9.260	502104	9.01
9.263	560159	10.06
9.267	608627	10.93
9.270	638638	11.46
9.273	645893	11.59
9.277	629703	11.30
9.280	592484	10.64
9.283	537645	9.65
9.287	475500	8.54
9.290	416294	7.47
9.293	361452	6.49
9.297	315252	5.66
9.300	282106	5.06
9.303	261956	4.70
9.307	250748	4.50
9.310	244036	4.38
9.313	239379	4.30
9.317	235776	4.23
9.320	231181	4.15
9.323	225285	4.04
9.327	221862	3.98
9.330	220782	3.96
9.333	218035	3.91
9.337	214683	3.85
9.340	212365	3.81
9.343	216166	3.88
9.347	225171	4.04
9.350	237206	4.26
9.353	253246	4.55
9.357	272205	4.89
9.360	290554	5.22
9.363	302754	5.43
9.367	305641	5.49
9.370	298879	5.37
9.373	284252	5.10
9.377	266351	4.78
9.380	247778	4.45
9.383	233037	4.18
9.387	225049	4.04
9.390	224162	4.02
9.393	228609	4.10
9.397	237387	4.26
9.400	247623	4.45
9.403	255082	4.58
9.407	256233	4.60
9.410	253035	4.54
9.413	243710	4.37
9.417	228197	4.10
9.420	212431	3.81
9.423	200136	3.59
9.427	191862	3.44
9.430	187448	3.36
9.433	187460	3.37
9.437	192211	3.45
9.440	197522	3.55
9.443	199365	3.58
9.447	197461	3.54
9.450	194440	3.49
9.453	193126	3.47
9.457	193598	3.48
9.460	194785	3.50
9.463	201299	3.61
9.467	214757	3.86
9.470	232974	4.18
9.473	252729	4.54
9.477	271307	4.87
9.480	290922	5.22
9.483	311573	5.59
9.487	335136	6.02
9.490	367296	6.59
9.493	406045	7.29
9.497	445686	8.00
9.500	481889	8.65
9.503	505609	9.08
9.507	511921	9.19
9.510	503603	9.04
9.513	483968	8.69
9.517	452383	8.12
9.520	413470	7.42
9.523	374348	6.72
9.527	337728	6.06
9.530	304070	5.46
9.533	277446	4.98
9.537	256920	4.61
9.540	240287	4.31
9.543	226606	4.07
9.547	214133	3.84
9.550	201564	3.62
9.553	191926	3.45
9.557	186966	3.36
9.560	186694	3.35
9.563	187014	3.36
9.567	191160	3.43
9.570	198119	3.56
9.573	205327	3.69
9.577	211480	3.80
9.580	218053	3.91
9.583	224404	4.03
9.587	229794	4.12
9.590	232183	4.17
9.593	230105	4.13
9.597	226210	4.06
9.600	223799	4.02
9.603	223427	4.01
9.607	221357	3.97
9.610	217845	3.91
9.613	212963	3.82
9.617	208567	3.74
9.620	205019	3.68
9.623	201159	3.61
9.627	197477	3.54
9.630	193379	3.47
9.633	187212	3.36
9.637	180267	3.24
9.640	176205	3.16
9.643	176155	3.16
9.647	177193	3.18
9.650	179938	3.23
9.653	180410	3.24
9.657	180765	3.24
9.660	180944	3.25
9.663	180642	3.24
9.667	180738	3.24
9.670	183290	3.29
9.673	189091	3.39
9.677	197295	3.54
9.680	204993	3.68
9.683	211359	3.79
9.687	215589	3.87
9.690	216542	3.89
9.693	212692	3.82
9.697	204956	3.68
9.700	196243	3.52
9.703	188562	3.38
9.707	183264	3.29
9.710	180524	3.24
9.713	179607	3.22
9.717	180650	3.24
9.720	183365	3.29
9.723	185107	3.32
9.727	184308	3.31
9.730	181781	3.26
9.733	179267	3.22
9.737	176496	3.17
9.740	176358	3.17
9.743	176817	3.17
9.747	179549	3.22
9.750	185515	3.33
9.753	195756	3.51
9.757	204985	3.68
9.760	217112	3.90
9.763	232106	4.17
9.767	243650	4.37
9.770	249443	4.48
9.773	252088	4.53
9.777	248862	4.47
9.780	240962	4.33
9.783	231178	4.15
9.787	218364	3.92
9.790	204948	3.68
9.793	192883	3.46
9.797	183315	3.29
9.800	176528	3.17
9.803	174083	3.12
9.807	178742	3.21
9.810	193246	3.47
9.813	220130	3.95
9.817	257623	4.62
9.820	306248	5.50
9.823	363060	6.52
9.827	420446	7.55
9.830	470270	8.44
9.833	502547	9.02
9.837	508974	9.14
9.840	489147	8.78
9.843	445505	8.00
9.847	387215	6.95
9.850	330983	5.94
9.853	285203	5.12
9.857	252539	4.53
9.860	233524	4.19
9.863	227014	4.08
9.867	231142	4.15
9.870	238491	4.28
9.873	243495	4.37
9.877	245274	4.40
9.880	243496	4.37
9.883	237362	4.26
9.887	228515	4.10
9.890	220731	3.96
9.893	213073	3.82
9.897	205643	3.69
9.900	201604	3.62
9.903	200903	3.61
9.907	203112	3.65
9.910	211500	3.80
9.913	224782	4.03
9.917	240997	4.33
9.920	258144	4.63
9.923	271923	4.88
9.927	279391	5.02
9.930	283718	5.09
9.933	289887	5.20
9.937	301869	5.42
9.940	318110	5.71
9.943	334106	6.00
9.947	348273	6.25
9.950	357716	6.42
9.953	353779	6.35
9.957	331510	5.95
9.960	298536	5.36
9.963	263449	4.73
9.967	230226	4.13
9.970	203089	3.65
9.973	184093	3.30
9.977	171099	3.07
9.980	163759	2.94
9.983	158824	2.85
9.987	154981	2.78
9.990	154545	2.77
9.993	152533	2.74
9.997	149710	2.69
10.000	149733	2.69
10.003	154869	2.78
10.007	164952	2.96
10.010	184071	3.30
10.013	217357	3.90
10.017	273454	4.91
10.020	358843	6.44
10.023	462967	8.31
10.027	563589	10.12
10.030	645091	11.58
10.033	696570	12.50
10.037	708592	12.72
10.040	676345	12.14
10.043	604522	10.85
10.047	510841	9.17
10.050	413908	7.43
10.053	328486	5.90
10.057	268274	4.82
10.060	232793	4.18
10.063	213474	3.83
10.067	203557	3.65
10.070	199439	3.58
10.073	197674	3.55
10.077	195204	3.50
10.080	193366	3.47
10.083	193328	3.47
10.087	195119	3.50
10.090	199788	3.59
10.093	209933	3.77
10.097	225661	4.05
10.100	244842	4.40
10.103	265580	4.77
10.107	290712	5.22
10.110	322997	5.80
10.113	364137	6.54
10.117	415707	7.46
10.120	476695	8.56
10.123	529810	9.51
10.127	559127	10.04
10.130	562456	10.10
10.133	538201	9.66
10.137	491023	8.81
10.140	431647	7.75
10.143	370041	6.64
10.147	315289	5.66
10.150	271978	4.88
10.153	239102	4.29
10.157	215698	3.87
10.160	203104	3.65
10.163	201242	3.61
10.167	213366	3.83
10.170	246305	4.42
10.173	310680	5.58
10.177	415497	7.46
10.180	562637	10.10
10.183	739594	13.28
10.187	916999	16.46
10.190	1056061	18.96
10.193	1128098	20.25
10.197	1120387	20.11
10.200	1020958	18.33
10.203	845422	15.18
10.207	646478	11.60
10.210	467985	8.40
10.213	330971	5.94
10.217	239268	4.30
10.220	185548	3.33
10.223	156677	2.81
10.227	145188	2.61
10.230	145714	2.62
10.233	153100	2.75
10.237	162047	2.91
10.240	171158	3.07
10.243	179292	3.22
10.247	187117	3.36
10.250	192336	3.45
10.253	193214	3.47
10.257	192680	3.46
10.260	190889	3.43
10.263	187124	3.36
10.267	182059	3.27
10.270	177186	3.18
10.273	172371	3.09
10.277	167671	3.01
10.280	161642	2.90
10.283	155599	2.79
10.287	151232	2.71
10.290	146243	2.63
10.293	142633	2.56
10.297	141772	2.54
10.300	141821	2.55
10.303	142152	2.55
10.307	144033	2.59
10.310	146029	2.62
10.313	148083	2.66
10.317	153125	2.75
10.320	160662	2.88
10.323	167722	3.01
10.327	177313	3.18
10.330	187130	3.36
10.333	194098	3.48
10.337	196344	3.52
10.340	192665	3.46
10.343	187318	3.36
10.347	180636	3.24
10.350	171556	3.08
10.353	162298	2.91
10.357	155290	2.79
10.360	151655	2.72
10.363	151555	2.72
10.367	151984	2.73
10.370	155431	2.79
10.373	159725	2.87
10.377	162091	2.91
10.380	163013	2.93
10.383	165268	2.97
10.387	167594	3.01
10.390	171805	3.08
10.393	180547	3.24
10.397	192338	3.45
10.400	208641	3.75
10.403	231279	4.15
10.407	257411	4.62
10.410	279379	5.02
10.413	291524	5.23
10.417	294888	5.29
10.420	289579	5.20
10.423	276826	4.97
10.427	259456	4.66
10.430	239036	4.29
10.433	219642	3.94
10.437	205660	3.69
10.440	196536	3.53
10.443	189943	3.41
10.447	187665	3.37
10.450	188494	3.38
10.453	192338	3.45
10.457	194804	3.50
10.460	197185	3.54
10.463	197489	3.55
10.467	192701	3.46
10.470	184603	3.31
10.473	175787	3.16
10.477	167704	3.01
10.480	159899	2.87
10.483	154447	2.77
10.487	152793	2.74
10.490	153973	2.76
10.493	156717	2.81
10.497	162613	2.92
10.500	175601	3.15
10.503	198167	3.56
10.507	241124	4.33
10.510	320395	5.75
10.513	458429	8.23
10.517	685125	12.30
10.520	1037189	18.62
10.523	1502440	26.97
10.527	2028712	36.42
10.530	2567663	46.09
10.533	3034283	54.47
10.537	3319386	59.59
10.540	3363484	60.38
10.543	3170032	56.90
10.547	2757424	49.50
10.550	2180663	39.14
10.553	1584167	28.44
10.557	1092172	19.61
10.560	740006	13.28
10.563	513144	9.21
10.567	379376	6.81
10.570	304611	5.47
10.573	260071	4.67
10.577	230536	4.14
10.580	211946	3.80
10.583	197067	3.54
10.587	184683	3.32
10.590	176913	3.18
10.593	171058	3.07
10.597	166245	2.98
10.600	162546	2.92
10.603	159538	2.86
10.607	157342	2.82
10.610	157327	2.82
10.613	158578	2.85
10.617	158896	2.85
10.620	161182	2.89
10.623	166343	2.99
10.627	173841	3.12
10.630	181839	3.26
10.633	190499	3.42
10.637	202293	3.63
10.640	216714	3.89
10.643	230470	4.14
10.647	241424	4.33
10.650	249523	4.48
10.653	255829	4.59
10.657	260094	4.67
10.660	262363	4.71
10.663	260056	4.67
10.667	253946	4.56
10.670	248369	4.46
10.673	239231	4.29
10.677	226414	4.06
10.680	214997	3.86
10.683	202677	3.64
10.687	190458	3.42
10.690	180517	3.24
10.693	171302	3.07
10.697	163900	2.94
10.700	159190	2.86
10.703	158294	2.84
10.707	159061	2.86
10.710	160999	2.89
10.713	165143	2.96
10.717	171382	3.08
10.720	177182	3.18
10.723	180457	3.24
10.727	183939	3.30
10.730	188543	3.38
10.733	189909	3.41
10.737	188771	3.39
10.740	187322	3.36
10.743	183949	3.30
10.747	178354	3.20
10.750	171661	3.08
10.753	166615	2.99
10.757	160887	2.89
10.760	154928	2.78
10.763	151347	2.72
10.767	148583	2.67
10.770	146370	2.63
10.773	146252	2.63
10.777	146267	2.63
10.780	146346	2.63
10.783	148586	2.67
10.787	151371	2.72
10.790	155247	2.79
10.793	161751	2.90
10.797	173418	3.11
10.800	188848	3.39
10.803	208856	3.75
10.807	227582	4.09
10.810	242162	4.35
10.813	251512	4.51
10.817	256627	4.61
10.820	256959	4.61
10.823	256553	4.61
10.827	253631	4.55
10.830	251187	4.51
10.833	250511	4.50
10.837	251374	4.51
10.840	251131	4.51
10.843	242833	4.36
10.847	229808	4.13
10.850	215994	3.88
10.853	202540	3.64
10.857	189414	3.40
10.860	179007	3.21
10.863	170858	3.07
10.867	164911	2.96
10.870	161552	2.90
10.873	158937	2.85
10.877	155452	2.79
10.880	154303	2.77
10.883	155770	2.80
10.887	160732	2.89
10.890	164708	2.96
10.893	168188	3.02
10.897	172755	3.10
10.900	175218	3.15
10.903	174291	3.13
10.907	172220	3.09
10.910	170223	3.06
10.913	169816	3.05
10.917	170666	3.06
10.920	173327	3.11
10.923	177303	3.18
10.927	180246	3.24
10.930	185380	3.33
10.933	192199	3.45
10.937	197651	3.55
10.940	201240	3.61
10.943	202354	3.63
10.947	202863	3.64
10.950	202645	3.64
10.953	199010	3.57
10.957	193669	3.48
10.960	188487	3.38
10.963	184384	3.31
10.967	180087	3.23
10.970	177560	3.19
10.973	182547	3.28
10.977	197502	3.55
10.980	220722	3.96
10.983	250331	4.49
10.987	282675	5.07
10.990	315114	5.66
10.993	343389	6.16
10.997	360270	6.47
11.000	364125	6.54
11.003	357880	6.42
11.007	343372	6.16
11.010	318816	5.72
11.013	288145	5.17
11.017	260035	4.67
11.020	234463	4.21
11.023	210060	3.77
11.027	191383	3.44
11.030	181912	3.27
11.033	179556	3.22
11.037	182661	3.28
11.040	193642	3.48
11.043	212196	3.81
11.047	234482	4.21
11.050	261165	4.69
11.053	293935	5.28
11.057	329404	5.91
11.060	364106	6.54
11.063	394184	7.08
11.067	414174	7.43
11.070	422781	7.59
11.073	421009	7.56
11.077	405795	7.28
11.080	380659	6.83
11.083	351246	6.31
11.087	314999	5.65
11.090	272302	4.89
11.093	231950	4.16
11.097	200203	3.59
11.100	175152	3.14
11.103	156094	2.80
11.107	145443	2.61
11.110	141439	2.54
11.113	141347	2.54
11.117	141562	2.54
11.120	144733	2.60
11.123	148220	2.66
11.127	150202	2.70
11.130	150476	2.70
11.133	150106	2.69
11.137	148272	2.66
11.140	148365	2.66
11.143	152782	2.74
11.147	159668	2.87
11.150	168297	3.02
11.153	178293	3.20
11.157	188657	3.39
11.160	199981	3.59
11.163	209459	3.76
11.167	217766	3.91
11.170	227150	4.08
11.173	235180	4.22
11.177	239207	4.29
11.180	239277	4.30
11.183	235866	4.23
11.187	227603	4.09
11.190	216016	3.88
11.193	201610	3.62
11.197	187977	3.37
11.200	178160	3.20
11.203	175372	3.15
11.207	179265	3.22
11.210	191413	3.44
11.213	210008	3.77
11.217	231527	4.16
11.220	252721	4.54
11.223	270758	4.86
11.227	280963	5.04
11.230	285827	5.13
11.233	291329	5.23
11.237	300462	5.39
11.240	312680	5.61
11.243	325462	5.84
11.247	339589	6.10
11.250	355879	6.39
11.253	370300	6.65
11.257	375597	6.74
11.260	369582	6.63
11.263	357184	6.41
11.267	337049	6.05
11.270	311462	5.59
11.273	288174	5.17
11.277	271844	4.88
11.280	262917	4.72
11.283	262347	4.71
11.287	270479	4.86
11.290	286212	5.14
11.293	308746	5.54
11.297	334780	6.01
11.300	357493	6.42
11.303	376909	6.77
11.307	401625	7.21
11.310	442769	7.95
11.313	513816	9.22
11.317	628410	11.28
11.320	794373	14.26
11.323	1001942	17.99
11.327	1205068	21.63
11.330	1347879	24.20
11.333	1399264	25.12
11.337	1349602	24.23
11.340	1197598	21.50
11.343	974908	17.50
11.347	738314	13.25
11.350	529551	9.51
11.353	374158	6.72
11.357	280888	5.04
11.360	243062	4.36
11.363	253206	4.55
11.367	304167	5.46
11.370	393173	7.06
11.373	507818	9.12
11.377	620271	11.13
11.380	702438	12.61
11.383	738715	13.26
11.387	717812	12.89
11.390	644806	11.57
11.393	540700	9.71
11.397	430267	7.72
11.400	336666	6.04
11.403	270822	4.86
11.407	227806	4.09
11.410	200096	3.59
11.413	183016	3.29
11.417	171881	3.09
11.420	161500	2.90
11.423	153171	2.75
11.427	146404	2.63
11.430	140170	2.52
11.433	136700	2.45
11.437	137872	2.47
11.440	144627	2.60
11.443	156164	2.80
11.447	172016	3.09
11.450	194126	3.48
11.453	222638	4.00
11.457	261780	4.70
11.460	310444	5.57
11.463	364500	6.54
11.467	421367	7.56
11.470	473079	8.49
11.473	507077	9.10
11.477	510675	9.17
11.480	482991	8.67
11.483	428481	7.69
11.487	358792	6.44
11.490	294838	5.29
11.493	247463	4.44
11.497	214302	3.85
11.500	194034	3.48
11.503	182808	3.28
11.507	175211	3.15
11.510	168049	3.02
11.513	160786	2.89
11.517	153808	2.76
11.520	150567	2.70
11.523	149215	2.68
11.527	149389	2.68
11.530	153377	2.75
11.533	157378	2.83
11.537	160816	2.89
11.540	165247	2.97
11.543	171041	3.07
11.547	175115	3.14
11.550	175522	3.15
11.553	178777	3.21
11.557	186583	3.35
11.560	202545	3.64
11.563	227674	4.09
11.567	266013	4.78
11.570	316450	5.68
11.573	375607	6.74
11.577	434005	7.79
11.580	474208	8.51
11.583	484730	8.70
11.587	469983	8.44
11.590	435791	7.82
11.593	384045	6.89
11.597	323264	5.80
11.600	266089	4.78
11.603	220593	3.96
11.607	189881	3.41
11.610	170867	3.07
11.613	156965	2.82
11.617	146809	2.64
11.620	142230	2.55
11.623	140477	2.52
11.627	136544	2.45
11.630	131643	2.36
11.633	128202	2.30
11.637	126701	2.27
11.640	123734	2.22
11.643	120397	2.16
11.647	119415	2.14
11.650	119669	2.15
11.653	121051	2.17
11.657	123731	2.22
11.660	126651	2.27
11.663	130941	2.35
11.667	134396	2.41
11.670	137585	2.47
11.673	142070	2.55
11.677	146362	2.63
11.680	149094	2.68
11.683	150771	2.71
11.687	151432	2.72
11.690	150654	2.70
11.693	148978	2.67
11.697	146753	2.63
11.700	142813	2.56
11.703	138164	2.48
11.707	136575	2.45
11.710	136484	2.45
11.713	137833	2.47
11.717	144220	2.59
11.720	155419	2.79
11.723	170730	3.06
11.727	190484	3.42
11.730	210452	3.78
11.733	227518	4.08
11.737	238158	4.28
11.740	239427	4.30
11.743	230285	4.13
11.747	213284	3.83
11.750	194188	3.49
11.753	177429	3.18
11.757	165042	2.96
11.760	156229	2.80
11.763	151901	2.73
11.767	150737	2.71
11.770	149586	2.69
11.773	149493	2.68
11.777	150395	2.70
11.780	151787	2.72
11.783	152326	2.73
11.787	151573	2.72
11.790	149291	2.68
11.793	147828	2.65
11.797	145477	2.61
11.800	144381	2.59
11.803	145044	2.60
11.807	149187	2.68
11.810	156184	2.80
11.813	168137	3.02
11.817	181659	3.26
11.820	196458	3.53
11.823	219912	3.95
11.827	261290	4.69
11.830	342034	6.14
11.833	497176	8.92
11.837	769951	13.82
11.840	1185730	21.28
11.843	1712473	30.74
11.847	2306951	41.41
11.850	2909768	52.23
11.853	3348894	60.11
11.857	3520069	63.19
11.860	3432801	61.62
11.863	3058539	54.90
11.867	2458973	44.14
11.870	1810624	32.50
11.873	1235752	22.18
11.877	791429	14.21
11.880	500426	8.98
11.883	341796	6.14
11.887	267288	4.80
11.890	235446	4.23
11.893	223365	4.01
11.897	221028	3.97
11.900	221924	3.98
11.903	223330	4.01
11.907	224325	4.03
11.910	224478	4.03
11.913	221413	3.97
11.917	215635	3.87
11.920	210202	3.77
11.923	205473	3.69
11.927	201567	3.62
11.930	199278	3.58
11.933	198972	3.57
11.937	200767	3.60
11.940	200902	3.61
11.943	198843	3.57
11.947	194839	3.50
11.950	190731	3.42
11.953	187100	3.36
11.957	182891	3.28
11.960	176554	3.17
11.963	172577	3.10
11.967	170386	3.06
11.970	165269	2.97
11.973	158600	2.85
11.977	153839	2.76
11.980	152636	2.74
11.983	152419	2.74
11.987	152531	2.74
11.990	153753	2.76
11.993	153532	2.76
11.997	152433	2.74
12.000	148963	2.67
12.003	145478	2.61
12.007	144253	2.59
12.010	144320	2.59
12.013	146218	2.62
12.017	152469	2.74
12.020	158745	2.85
12.023	165409	2.97
12.027	172199	3.09
12.030	176293	3.16
12.033	176333	3.17
12.037	173067	3.11
12.040	168805	3.03
12.043	164928	2.96
12.047	160794	2.89
12.050	156622	2.81
12.053	152378	2.74
12.057	148836	2.67
12.060	146226	2.62
12.063	145303	2.61
12.067	143737	2.58
12.070	141737	2.54
12.073	142150	2.55
12.077	144876	2.60
12.080	148509	2.67
12.083	152472	2.74
12.087	158768	2.85
12.090	165601	2.97
12.093	171456	3.08
12.097	176125	3.16
12.100	180216	3.23
12.103	184453	3.31
12.107	188029	3.38
12.110	190495	3.42
12.113	191004	3.43
12.117	191476	3.44
12.120	190572	3.42
12.123	186112	3.34
12.127	179534	3.22
12.130	171488	3.08
12.133	164538	2.95
12.137	157009	2.82
12.140	152282	2.73
12.143	148929	2.67
12.147	146552	2.63
12.150	144236	2.59
12.153	141912	2.55
12.157	138732	2.49
12.160	136017	2.44
12.163	132328	2.38
12.167	130789	2.35
12.170	130849	2.35
12.173	130962	2.35
12.177	132644	2.38
12.180	136592	2.45
12.183	142081	2.55
12.187	148924	2.67
12.190	155452	2.79
12.193	160672	2.88
12.197	164264	2.95
12.200	165321	2.97
12.203	165669	2.97
12.207	165732	2.98
12.210	166487	2.99
12.213	168537	3.03
12.217	169303	3.04
12.220	168495	3.02
12.223	164044	2.94
12.227	156159	2.80
12.230	146510	2.63
12.233	136618	2.45
12.237	129155	2.32
12.240	123889	2.22
12.243	119918	2.15
12.247	118040	2.12
12.250	119804	2.15
12.253	123844	2.22
12.257	131199	2.36
12.260	141626	2.54
12.263	154036	2.77
12.267	167650	3.01
12.270	180342	3.24
12.273	189859	3.41
12.277	190488	3.42
12.280	186450	3.35
12.283	180248	3.24
12.287	169921	3.05
12.290	156660	2.81
12.293	143208	2.57
12.297	134150	2.41
12.300	129104	2.32
12.303	124914	2.24
12.307	122298	2.20
12.310	122245	2.19
12.313	124367	2.23
12.317	127587	2.29
12.320	131911	2.37
12.323	136602	2.45
12.327	141378	2.54
12.330	147431	2.65
12.333	152362	2.74
12.337	153382	2.75
12.340	154924	2.78
12.343	158113	2.84
12.347	162517	2.92
12.350	167556	3.01
12.353	173932	3.12
12.357	180056	3.23
12.360	184886	3.32
12.363	189851	3.41
12.367	191928	3.45
12.370	189824	3.41
12.373	183147	3.29
12.377	174099	3.13
12.380	164521	2.95
12.383	152739	2.74
12.387	141488	2.54
12.390	133097	2.39
12.393	128413	2.31
12.397	125874	2.26
12.400	125877	2.26
12.403	130277	2.34
12.407	139157	2.50
12.410	149493	2.68
12.413	159431	2.86
12.417	172505	3.10
12.420	186745	3.35
12.423	198082	3.56
12.427	204763	3.68
12.430	205354	3.69
12.433	204535	3.67
12.437	204969	3.68
12.440	209640	3.76
12.443	218264	3.92
12.447	229039	4.11
12.450	238212	4.28
12.453	241174	4.33
12.457	235167	4.22
12.460	219898	3.95
12.463	200779	3.60
12.467	182661	3.28
12.470	170020	3.05
12.473	165051	2.96
12.477	167325	3.00
12.480	180421	3.24
12.483	205076	3.68
12.487	238178	4.28
12.490	274134	4.92
12.493	310575	5.58
12.497	342132	6.14
12.500	362240	6.50
12.503	368555	6.62
12.507	359879	6.46
12.510	331506	5.95
12.513	290262	5.21
12.517	248472	4.46
12.520	209714	3.76
12.523	177795	3.19
12.527	154899	2.78
12.530	139565	2.51
12.533	130634	2.34
12.537	127259	2.28
12.540	127611	2.29
12.543	131353	2.36
12.547	138518	2.49
12.550	152291	2.73
12.553	176212	3.16
12.557	209692	3.76
12.560	248791	4.47
12.563	290123	5.21
12.567	326979	5.87
12.570	350801	6.30
12.573	355734	6.39
12.577	342676	6.15
12.580	319926	5.74
12.583	298034	5.35
12.587	283049	5.08
12.590	275967	4.95
12.593	271011	4.86
12.597	260445	4.68
12.600	243368	4.37
12.603	222827	4.00
12.607	202284	3.63
12.610	186095	3.34
12.613	177531	3.19
12.617	179545	3.22
12.620	191263	3.43
12.623	212626	3.82
12.627	243379	4.37
12.630	285111	5.12
12.633	342521	6.15
12.637	416566	7.48
12.640	502188	9.01
12.643	588172	10.56
12.647	650418	11.68
12.650	663211	11.91
12.653	623166	11.19
12.657	546614	9.81
12.660	451772	8.11
12.663	354194	6.36
12.667	268856	4.83
12.670	204490	3.67
12.673	163505	2.94
12.677	139975	2.51
12.680	126638	2.27
12.683	122243	2.19
12.687	124731	2.24
12.690	129470	2.32
12.693	135513	2.43
12.697	142628	2.56
12.700	149321	2.68
12.703	153160	2.75
12.707	151762	2.72
12.710	147761	2.65
12.713	146768	2.63
12.717	147555	2.65
12.720	153202	2.75
12.723	170041	3.05
12.727	199371	3.58
12.730	236999	4.25
12.733	276493	4.96
12.737	304844	5.47
12.740	316912	5.69
12.743	307116	5.51
12.747	276586	4.96
12.750	236985	4.25
12.753	197367	3.54
12.757	163615	2.94
12.760	138001	2.48
12.763	122569	2.20
12.767	115325	2.07
12.770	113400	2.04
12.773	115175	2.07
12.777	118710	2.13
12.780	124619	2.24
12.783	134449	2.41
12.787	146055	2.62
12.790	155970	2.80
12.793	163642	2.94
12.797	167226	3.00
12.800	167225	3.00
12.803	162733	2.92
12.807	155082	2.78
12.810	149375	2.68
12.813	145799	2.62
12.817	143850	2.58
12.820	143730	2.58
12.823	143597	2.58
12.827	140955	2.53
12.830	137371	2.47
12.833	133133	2.39
12.837	132337	2.38
12.840	134988	2.42
12.843	140587	2.52
12.847	147159	2.64
12.850	155224	2.79
12.853	160259	2.88
12.857	163965	2.94
12.860	164054	2.94
12.863	160025	2.87
12.867	152199	2.73
12.870	145122	2.61
12.873	143353	2.57
12.877	143682	2.58
12.880	144455	2.59
12.883	144354	2.59
12.887	143754	2.58
12.890	143695	2.58
12.893	142286	2.55
12.897	135948	2.44
12.900	127685	2.29
12.903	119628	2.15
12.907	113934	2.05
12.910	110948	1.99
12.913	108968	1.96
12.917	107704	1.93
12.920	106693	1.92
12.923	107942	1.94
12.927	108786	1.95
12.930	108496	1.95
12.933	108123	1.94
12.937	108326	1.94
12.940	108044	1.94
12.943	108096	1.94
12.947	110670	1.99
12.950	112742	2.02
12.953	113677	2.04
12.957	114957	2.06
12.960	115797	2.08
12.963	116928	2.10
12.967	118313	2.12
12.970	116284	2.09
12.973	113730	2.04
12.977	110524	1.98
12.980	108461	1.95
12.983	107827	1.94
12.987	105569	1.90
12.990	102254	1.84
12.993	99529	1.79
12.997	99181	1.78
13.000	99605	1.79
13.003	100401	1.80
13.007	101833	1.83
13.010	103637	1.86
13.013	105541	1.89
13.017	105730	1.90
13.020	105849	1.90
13.023	105315	1.89
13.027	104221	1.87
13.030	103855	1.86
13.033	102962	1.85
13.037	102076	1.83
13.040	102346	1.84
13.043	103714	1.86
13.047	105905	1.90
13.050	109956	1.97
13.053	113415	2.04
13.057	116033	2.08
13.060	119742	2.15
13.063	125442	2.25
13.067	139673	2.51
13.070	177072	3.18
13.073	265573	4.77
13.077	439855	7.90
13.080	720907	12.94
13.083	1117028	20.05
13.087	1595149	28.63
13.090	2051675	36.83
13.093	2386639	42.84
13.097	2545966	45.70
13.100	2504531	44.96
13.103	2260696	40.58
13.107	1848948	33.19
13.110	1365712	24.52
13.113	922353	16.56
13.117	583215	10.47
13.120	358378	6.43
13.123	226591	4.07
13.127	161656	2.90
13.130	134445	2.41
13.133	124459	2.23
13.137	122988	2.21
13.140	124868	2.24
13.143	128823	2.31
13.147	134458	2.41
13.150	142580	2.56
13.153	154043	2.77
13.157	168025	3.02
13.160	180016	3.23
13.163	186932	3.36
13.167	190813	3.43
13.170	192981	3.46
13.173	190815	3.43
13.177	184511	3.31
13.180	178072	3.20
13.183	171121	3.07
13.187	163580	2.94
13.190	155404	2.79
13.193	149444	2.68
13.197	146312	2.63
13.200	143056	2.57
13.203	140541	2.52
13.207	139024	2.50
13.210	134945	2.42
13.213	128934	2.31
13.217	124696	2.24
13.220	121707	2.18
13.223	117330	2.11
13.227	111655	2.00
13.230	105711	1.90
13.233	101358	1.82
13.237	97286	1.75
13.240	94989	1.71
13.243	95095	1.71
13.247	97084	1.74
13.250	97313	1.75
13.253	98214	1.76
13.257	101460	1.82
13.260	105718	1.90
13.263	109770	1.97
13.267	114177	2.05
13.270	116610	2.09
13.273	116446	2.09
13.277	116002	2.08
13.280	117182	2.10
13.283	117731	2.11
13.287	115221	2.07
13.290	112208	2.01
13.293	110562	1.98
13.297	109750	1.97
13.300	109628	1.97
13.303	110739	1.99
13.307	115074	2.07
13.310	120843	2.17
13.313	125740	2.26
13.317	128637	2.31
13.320	128641	2.31
13.323	125978	2.26
13.327	124003	2.23
13.330	121164	2.17
13.333	117898	2.12
13.337	114950	2.06
13.340	112133	2.01
13.343	110833	1.99
13.347	110297	1.98
13.350	109943	1.97
13.353	110260	1.98
13.357	111977	2.01
13.360	112742	2.02
13.363	112131	2.01
13.367	110407	1.98
13.370	109290	1.96
13.373	108063	1.94
13.377	106163	1.91
13.380	104274	1.87
13.383	100310	1.80
13.387	97841	1.76
13.390	97995	1.76
13.393	100063	1.80
13.397	100269	1.80
13.400	101869	1.83
13.403	105777	1.90
13.407	109015	1.96
13.410	110943	1.99
13.413	113180	2.03
13.417	116032	2.08
13.420	117978	2.12
13.423	115932	2.08
13.427	112164	2.01
13.430	109097	1.96
13.433	105590	1.90
13.437	100312	1.80
13.440	97287	1.75
13.443	95300	1.71
13.447	94841	1.70
13.450	95204	1.71
13.453	95839	1.72
13.457	95447	1.71
13.460	94810	1.70
13.463	92823	1.67
13.467	92488	1.66
13.470	92367	1.66
13.473	92458	1.66
13.477	94112	1.69
13.480	97468	1.75
13.483	102312	1.84
13.487	106027	1.90
13.490	108336	1.94
13.493	110661	1.99
13.497	112733	2.02
13.500	112745	2.02
13.503	110638	1.99
13.507	106123	1.90
13.510	100038	1.80
13.513	93897	1.69
13.517	89140	1.60
13.520	86129	1.55
13.523	82546	1.48
13.527	79588	1.43
13.530	78860	1.42
13.533	78990	1.42
13.537	79353	1.42
13.540	79533	1.43
13.543	82396	1.48
13.547	85882	1.54
13.550	86678	1.56
13.553	88971	1.60
13.557	91995	1.65
13.560	94006	1.69
13.563	95920	1.72
13.567	97288	1.75
13.570	97364	1.75
13.573	97077	1.74
13.577	96548	1.73
13.580	96231	1.73
13.583	96266	1.73
13.587	94957	1.70
13.590	92060	1.65
13.593	91838	1.65
13.597	93922	1.69
13.600	99859	1.79
13.603	107456	1.93
13.607	117985	2.12
13.610	133372	2.39
13.613	157550	2.83
13.617	195013	3.50
13.620	247910	4.45
13.623	318876	5.72
13.627	410028	7.36
13.630	512345	9.20
13.633	614061	11.02
13.637	707069	12.69
13.640	778726	13.98
13.643	807604	14.50
13.647	789995	14.18
13.650	731708	13.13
13.653	635945	11.42
13.657	515407	9.25
13.660	395137	7.09
13.663	290548	5.22
13.667	208819	3.75
13.670	152436	2.74
13.673	118164	2.12
13.677	103569	1.86
13.680	99984	1.79
13.683	100071	1.80
13.687	103472	1.86
13.690	107625	1.93
13.693	110733	1.99
13.697	112498	2.02
13.700	112573	2.02
13.703	109561	1.97
13.707	103897	1.87
13.710	99313	1.78
13.713	96226	1.73
13.717	94274	1.69
13.720	92241	1.66
13.723	89902	1.61
13.727	89251	1.60
13.730	88079	1.58
13.733	88107	1.58
13.737	88256	1.58
13.740	88743	1.59
13.743	90399	1.62
13.747	93207	1.67
13.750	98358	1.77
13.753	103983	1.87
13.757	110462	1.98
13.760	121838	2.19
13.763	135880	2.44
13.767	147381	2.65
13.770	154443	2.77
13.773	154569	2.77
13.777	148901	2.67
13.780	136637	2.45
13.783	121859	2.19
13.787	108680	1.95
13.790	100483	1.80
13.793	96339	1.73
13.797	96411	1.73
13.800	100795	1.81
13.803	108175	1.94
13.807	115596	2.08
13.810	121415	2.18
13.813	123145	2.21
13.817	122378	2.20
13.820	118616	2.13
13.823	116194	2.09
13.827	122206	2.19
13.830	139770	2.51
13.833	170105	3.05
13.837	213145	3.83
13.840	260498	4.68
13.843	297191	5.33
13.847	315618	5.67
13.850	314872	5.65
13.853	293164	5.26
13.857	255845	4.59
13.860	210771	3.78
13.863	170106	3.05
13.867	142656	2.56
13.870	125834	2.26
13.873	116566	2.09
13.877	113278	2.03
13.880	110963	1.99
13.883	108367	1.95
13.887	106801	1.92
13.890	104542	1.88
13.893	100636	1.81
13.897	96746	1.74
13.900	93212	1.67
13.903	89214	1.60
13.907	88044	1.58
13.910	88432	1.59
13.913	89231	1.60
13.917	94926	1.70
13.920	105026	1.89
13.923	119378	2.14
13.927	137139	2.46
13.930	152525	2.74
13.933	162093	2.91
13.937	163035	2.93
13.940	155071	2.78
13.943	138677	2.49
13.947	119419	2.14
13.950	103523	1.86
13.953	92007	1.65
13.957	84554	1.52
13.960	78658	1.41
13.963	75754	1.36
13.967	75009	1.35
13.970	74816	1.34
13.973	75497	1.36
13.977	79292	1.42
13.980	85033	1.53
13.983	92052	1.65
13.987	100153	1.80
13.990	105555	1.89
13.993	108088	1.94
13.997	109869	1.97
14.000	110032	1.98
14.003	107578	1.93
14.007	100530	1.80
14.010	93162	1.67
14.013	88393	1.59
14.017	84629	1.52
14.020	80654	1.45
14.023	76929	1.38
14.027	75557	1.36
14.030	75330	1.35
14.033	76082	1.37
14.037	76616	1.38
14.040	76445	1.37
14.043	76498	1.37
14.047	76830	1.38
14.050	78222	1.40
14.053	80759	1.45
14.057	85036	1.53
14.060	89813	1.61
14.063	91215	1.64
14.067	91528	1.64
14.070	91915	1.65
14.073	91386	1.64
14.077	89536	1.61
14.080	88432	1.59
14.083	88860	1.60
14.087	90376	1.62
14.090	92226	1.66
14.093	92732	1.66
14.097	91421	1.64
14.100	91015	1.63
14.103	91154	1.64
14.107	90782	1.63
14.110	90459	1.62
14.113	90942	1.63
14.117	91919	1.65
14.120	93826	1.68
14.123	95904	1.72
14.127	96631	1.73
14.130	96669	1.74
14.133	96063	1.72
14.137	91930	1.65
14.140	87853	1.58
14.143	85141	1.53
14.147	85496	1.53
14.150	92059	1.65
14.153	107460	1.93
14.157	128089	2.30
14.160	153198	2.75
14.163	180288	3.24
14.167	202660	3.64
14.170	216768	3.89
14.173	218468	3.92
14.177	206221	3.70
14.180	183473	3.29
14.183	156279	2.81
14.187	129627	2.33
14.190	107561	1.93
14.193	91389	1.64
14.197	81049	1.45
14.200	75931	1.36
14.203	73433	1.32
14.207	71306	1.28
14.210	70918	1.27
14.213	70931	1.27
14.217	71348	1.28
14.220	72996	1.31
14.223	74676	1.34
14.227	75488	1.36
14.230	75003	1.35
14.233	74272	1.33
14.237	74298	1.33
14.240	77223	1.39
14.243	91956	1.65
14.247	130207	2.34
14.250	206439	3.71
14.253	337294	6.05
14.257	532941	9.57
14.260	780123	14.00
14.263	1039099	18.65
14.267	1267328	22.75
14.270	1419957	25.49
14.273	1451589	26.06
14.277	1364389	24.49
14.280	1200411	21.55
14.283	1026443	18.43
14.287	909471	16.33
14.290	872875	15.67
14.293	894970	16.07
14.297	944436	16.95
14.300	991241	17.79
14.303	1001720	17.98
14.307	966073	17.34
14.310	888744	15.95
14.313	769791	13.82
14.317	622680	11.18
14.320	469061	8.42
14.323	329910	5.92
14.327	224769	4.03
14.330	156895	2.82
14.333	117642	2.11
14.337	97843	1.76
14.340	89622	1.61
14.343	86003	1.54
14.347	85335	1.53
14.350	85599	1.54
14.353	85290	1.53
14.357	82854	1.49
14.360	81538	1.46
14.363	81268	1.46
14.367	81236	1.46
14.370	82818	1.49
14.373	85700	1.54
14.377	86103	1.55
14.380	85288	1.53
14.383	85574	1.54
14.387	85945	1.54
14.390	84727	1.52
14.393	81181	1.46
14.397	76245	1.37
14.400	72212	1.30
14.403	71642	1.29
14.407	70035	1.26
14.410	67671	1.21
14.413	68083	1.22
14.417	70259	1.26
14.420	72018	1.29
14.423	71935	1.29
14.427	69741	1.25
14.430	67864	1.22
14.433	66814	1.20
14.437	66516	1.19
14.440	66585	1.20
14.443	66000	1.18
14.447	64424	1.16
14.450	63864	1.15
14.453	63475	1.14
14.457	63577	1.14
14.460	63932	1.15
14.463	63898	1.15
14.467	63695	1.14
14.470	63964	1.15
14.473	65509	1.18
14.477	67538	1.21
14.480	68197	1.22
14.483	67930	1.22
14.487	68401	1.23
14.490	70307	1.26
14.493	71254	1.28
14.497	72321	1.30
14.500	72654	1.30
14.503	72173	1.30
14.507	71721	1.29
14.510	72241	1.30
14.513	72606	1.30
14.517	72551	1.30
14.520	72581	1.30
14.523	73092	1.31
14.527	74245	1.33
14.530	74334	1.33
14.533	74301	1.33
14.537	73128	1.31
14.540	70651	1.27
14.543	68365	1.23
14.547	68550	1.23
14.550	69975	1.26
14.553	71027	1.27
14.557	72685	1.30
14.560	76323	1.37
14.563	79467	1.43
14.567	82274	1.48
14.570	85104	1.53
14.573	85436	1.53
14.577	85443	1.53
14.580	85256	1.53
14.583	83349	1.50
14.587	81523	1.46
14.590	79465	1.43
14.593	76483	1.37
14.597	74335	1.33
14.600	72960	1.31
14.603	71809	1.29
14.607	69292	1.24
14.610	66565	1.19
14.613	64576	1.16
14.617	64363	1.16
14.620	63886	1.15
14.623	61865	1.11
14.627	61656	1.11
14.630	62867	1.13
14.633	63777	1.14
14.637	65977	1.18
14.640	69111	1.24
14.643	72957	1.31
14.647	77173	1.39
14.650	81128	1.46
14.653	83165	1.49
14.657	83330	1.50
14.660	82319	1.48
14.663	79264	1.42
14.667	76763	1.38
14.670	76132	1.37
14.673	76532	1.37
14.677	78749	1.41
14.680	81241	1.46
14.683	82403	1.48
14.687	83288	1.50
14.690	85407	1.53
14.693	86579	1.55
14.697	86998	1.56
14.700	85786	1.54
14.703	83425	1.50
14.707	82303	1.48
14.710	80874	1.45
14.713	78266	1.40
14.717	75566	1.36
14.720	74257	1.33
14.723	75689	1.36
14.727	78669	1.41
14.730	83097	1.49
14.733	90213	1.62
14.737	97475	1.75
14.740	104156	1.87
14.743	108730	1.95
14.747	108722	1.95
14.750	108297	1.94
14.753	105954	1.90
14.757	102310	1.84
14.760	96449	1.73
14.763	88584	1.59
14.767	82095	1.47
14.770	76523	1.37
14.773	71501	1.28
14.777	68125	1.22
14.780	67710	1.22
14.783	67900	1.22
14.787	68131	1.22
14.790	68212	1.22
14.793	67982	1.22
14.797	67259	1.21
14.800	65287	1.17
14.803	64062	1.15
14.807	63184	1.13
14.810	63275	1.14
14.813	65669	1.18
14.817	68193	1.22
14.820	69741	1.25
14.823	71702	1.29
14.827	74884	1.34
14.830	77369	1.39
14.833	77771	1.40
14.837	77340	1.39
14.840	73873	1.33
14.843	68877	1.24
14.847	66359	1.19
14.850	63636	1.14
14.853	61659	1.11
14.857	61081	1.10
14.860	61017	1.10
14.863	61275	1.10
14.867	62179	1.12
14.870	62882	1.13
14.873	63609	1.14
14.877	63095	1.13
14.880	61736	1.11
14.883	61660	1.11
14.887	62998	1.13
14.890	64374	1.16
14.893	66264	1.19
14.897	68737	1.23
14.900	72807	1.31
14.903	75345	1.35
14.907	77573	1.39
14.910	79661	1.43
14.913	79671	1.43
14.917	78256	1.40
14.920	74982	1.35
14.923	71815	1.29
14.927	67888	1.22
14.930	65368	1.17
14.933	62833	1.13
14.937	58720	1.05
14.940	57750	1.04
14.943	57772	1.04
14.947	57837	1.04
14.950	57778	1.04
14.953	57775	1.04
14.957	58619	1.05
14.960	61869	1.11
14.963	67105	1.20
14.967	74466	1.34
14.970	85365	1.53
14.973	102349	1.84
14.977	118548	2.13
14.980	128469	2.31
14.983	132005	2.37
14.987	127880	2.30
14.990	118720	2.13
14.993	106896	1.92
14.997	92500	1.66
15.000	79584	1.43
15.003	70316	1.26
15.007	63729	1.14
15.010	61583	1.11
15.013	61778	1.11
15.017	63399	1.14
15.020	66886	1.20
15.023	70371	1.26
15.027	74987	1.35
15.030	79752	1.43
15.033	84561	1.52
15.037	87385	1.57
15.040	87766	1.58
15.043	86302	1.55
15.047	82296	1.48
15.050	79413	1.43
15.053	77903	1.40
15.057	77761	1.40
15.060	79549	1.43
15.063	81937	1.47
15.067	82322	1.48
15.070	82265	1.48
15.073	79716	1.43
15.077	75037	1.35
15.080	70345	1.26
15.083	66882	1.20
15.087	63367	1.14
15.090	60766	1.09
15.093	60618	1.09
15.097	60549	1.09
15.100	58959	1.06
15.103	58706	1.05
15.107	58670	1.05
15.110	58314	1.05
15.113	58381	1.05
15.117	58026	1.04
15.120	57655	1.03
15.123	57282	1.03
15.127	57279	1.03
15.130	57692	1.04
15.133	58073	1.04
15.137	58209	1.04
15.140	57574	1.03
15.143	57512	1.03
15.147	58187	1.04
15.150	57708	1.04
15.153	56996	1.02
15.157	56151	1.01
15.160	56747	1.02
15.163	57162	1.03
15.167	57237	1.03
15.170	56938	1.02
15.173	56966	1.02
15.177	57059	1.02
15.180	56116	1.01
15.183	55668	1.00
15.187	56346	1.01
15.190	55773	1.00
15.193	54426	0.98
15.197	53785	0.97
15.200	52955	0.95
15.203	53445	0.96
15.207	54101	0.97
15.210	53748	0.96
15.213	53646	0.96
15.217	54183	0.97
15.220	54263	0.97
15.223	54210	0.97
15.227	54669	0.98
15.230	55164	0.99
15.233	56638	1.02
15.237	56989	1.02
15.240	57716	1.04
15.243	59884	1.07
15.247	60162	1.08
15.250	59844	1.07
15.253	58708	1.05
15.257	57619	1.03
15.260	57088	1.02
15.263	56893	1.02
15.267	57014	1.02
15.270	57042	1.02
15.273	56691	1.02
15.277	55676	1.00
15.280	55593	1.00
15.283	54432	0.98
15.287	52678	0.95
15.290	52030	0.93
15.293	52295	0.94
15.297	52354	0.94
15.300	52429	0.94
15.303	51933	0.93
15.307	52711	0.95
15.310	52726	0.95
15.313	52854	0.95
15.317	53112	0.95
15.320	53384	0.96
15.323	53054	0.95
15.327	52127	0.94
15.330	50354	0.90
15.333	49308	0.89
15.337	48957	0.88
15.340	50473	0.91
15.343	50844	0.91
15.347	51390	0.92
15.350	52524	0.94
15.353	53247	0.96
15.357	56321	1.01
15.360	66155	1.19
15.363	87165	1.56
15.367	127147	2.28
15.370	188339	3.38
15.373	267549	4.80
15.377	354056	6.36
15.380	429696	7.71
15.383	477116	8.56
15.387	487801	8.76
15.390	456221	8.19
15.393	382457	6.87
15.397	290176	5.21
15.400	206287	3.70
15.403	141866	2.55
15.407	99873	1.79
15.410	75019	1.35
15.413	62184	1.12
15.417	59878	1.07
15.420	67298	1.21
15.423	89083	1.60
15.427	128573	2.31
15.430	189168	3.40
15.433	275778	4.95
15.437	390418	7.01
15.440	522702	9.38
15.443	650009	11.67
15.447	753674	13.53
15.450	824954	14.81
15.453	854074	15.33
15.457	839829	15.08
15.460	788059	14.15
15.463	701994	12.60
15.467	581684	10.44
15.470	442779	7.95
15.473	314182	5.64
15.477	214786	3.86
15.480	145023	2.60
15.483	101360	1.82
15.487	76083	1.37
15.490	62329	1.12
15.493	57976	1.04
15.497	56125	1.01
15.500	57767	1.04
15.503	58828	1.06
15.507	59651	1.07
15.510	61087	1.10
15.513	61560	1.11
15.517	61383	1.10
15.520	60359	1.08
15.523	58854	1.06
15.527	58790	1.06
15.530	58145	1.04
15.533	56295	1.01
15.537	54225	0.97
15.540	54058	0.97
15.543	53981	0.97
15.547	53578	0.96
15.550	53279	0.96
15.553	53404	0.96
15.557	54142	0.97
15.560	53700	0.96
15.563	53471	0.96
15.567	53329	0.96
15.570	53570	0.96
15.573	53625	0.96
15.577	52812	0.95
15.580	51112	0.92
15.583	50125	0.90
15.587	51794	0.93
15.590	52171	0.94
15.593	51823	0.93
15.597	51892	0.93
15.600	52104	0.94
15.603	52535	0.94
15.607	52331	0.94
15.610	51180	0.92
15.613	50241	0.90
15.617	49983	0.90
15.620	48483	0.87
15.623	48372	0.87
15.627	49386	0.89
15.630	50579	0.91
15.633	49833	0.89
15.637	50405	0.90
15.640	50266	0.90
15.643	48869	0.88
15.647	48594	0.87
15.650	48507	0.87
15.653	48510	0.87
15.657	48658	0.87
15.660	49362	0.89
15.663	51098	0.92
15.667	51311	0.92
15.670	51524	0.92
15.673	51457	0.92
15.677	51511	0.92
15.680	51686	0.93
15.683	52249	0.94
15.687	52348	0.94
15.690	52024	0.93
15.693	51759	0.93
15.697	51591	0.93
15.700	50956	0.91
15.703	48950	0.88
15.707	48546	0.87
15.710	48905	0.88
15.713	49001	0.88
15.717	49542	0.89
15.720	51115	0.92
15.723	51211	0.92
15.727	50644	0.91
15.730	50518	0.91
15.733	49962	0.90
15.737	49794	0.89
15.740	49754	0.89
15.743	49325	0.89
15.747	49124	0.88
15.750	49292	0.88
15.753	49445	0.89
15.757	49123	0.88
15.760	49309	0.89
15.763	48951	0.88
15.767	48829	0.88
15.770	48927	0.88
15.773	49854	0.89
15.777	51044	0.92
15.780	51992	0.93
15.783	53733	0.96
15.787	54342	0.98
15.790	54144	0.97
15.793	54090	0.97
15.797	54086	0.97
15.800	53212	0.96
15.803	51341	0.92
15.807	51345	0.92
15.810	51563	0.93
15.813	51828	0.93
15.817	53243	0.96
15.820	54096	0.97
15.823	54116	0.97
15.827	53893	0.97
15.830	53923	0.97
15.833	53820	0.97
15.837	54003	0.97
15.840	54453	0.98
15.843	54530	0.98
15.847	54022	0.97
15.850	54100	0.97
15.853	53922	0.97
15.857	53652	0.96
15.860	53779	0.97
15.863	53826	0.97
15.867	53674	0.96
15.870	53777	0.97
15.873	54190	0.97
15.877	54470	0.98
15.880	54160	0.97
15.883	53763	0.97
15.887	53427	0.96
15.890	53500	0.96
15.893	53330	0.96
15.897	53427	0.96
15.900	52242	0.94
15.903	51278	0.92
15.907	50202	0.90
15.910	50848	0.91
15.913	51810	0.93
15.917	52469	0.94
15.920	51779	0.93
15.923	51262	0.92
15.927	50872	0.91
15.930	49266	0.88
15.933	47637	0.86
15.937	47169	0.85
15.940	45856	0.82
15.943	45695	0.82
15.947	45906	0.82
15.950	45797	0.82
15.953	45689	0.82
15.957	45983	0.83
15.960	45947	0.82
15.963	45252	0.81
15.967	45137	0.81
15.970	45594	0.82
15.973	45685	0.82
15.977	45414	0.82
15.980	46019	0.83
15.983	46807	0.84
15.987	48475	0.87
15.990	49397	0.89
15.993	50703	0.91
15.997	50666	0.91
16.000	50885	0.91
16.003	49859	0.90
16.007	48332	0.87
16.010	46515	0.83
16.013	46075	0.83
16.017	45560	0.82
16.020	45553	0.82
16.023	45322	0.81
16.027	45127	0.81
16.030	45250	0.81
16.033	45156	0.81
16.037	45553	0.82
16.040	45767	0.82
16.043	47813	0.86
16.047	49777	0.89
16.050	51507	0.92
16.053	53006	0.95
16.057	55717	1.00
16.060	59297	1.06
16.063	61096	1.10
16.067	59302	1.06
16.070	56159	1.01
16.073	53415	0.96
16.077	51752	0.93
16.080	50753	0.91
16.083	49046	0.88
16.087	48601	0.87
16.090	48552	0.87
16.093	48650	0.87
16.097	49084	0.88
16.100	48993	0.88
16.103	48683	0.87
16.107	48481	0.87
16.110	48292	0.87
16.113	47197	0.85
16.117	45682	0.82
16.120	45063	0.81
16.123	45474	0.82
16.127	48062	0.86
16.130	48660	0.87
16.133	48622	0.87
16.137	49962	0.90
16.140	50877	0.91
16.143	53462	0.96
16.147	55363	0.99
16.150	55332	0.99
16.153	55932	1.00
16.157	55800	1.00
16.160	55356	0.99
16.163	54402	0.98
16.167	52608	0.94
16.170	51230	0.92
16.173	50270	0.90
16.177	50825	0.91
16.180	51199	0.92
16.183	51153	0.92
16.187	51160	0.92
16.190	50836	0.91
16.193	48950	0.88
16.197	48696	0.87
16.200	48804	0.88
16.203	48718	0.87
16.207	48695	0.87
16.210	48814	0.88
16.213	49288	0.88
16.217	49243	0.88
16.220	49368	0.89
16.223	49893	0.90
16.227	49408	0.89
16.230	48491	0.87
16.233	48220	0.87
16.237	48511	0.87
16.240	48641	0.87
16.243	48361	0.87
16.247	48531	0.87
16.250	49057	0.88
16.253	48928	0.88
16.257	49915	0.90
16.260	50646	0.91
16.263	50451	0.91
16.267	50055	0.90
16.270	49848	0.89
16.273	50166	0.90
16.277	50899	0.91
16.280	51095	0.92
16.283	50918	0.91
16.287	49892	0.90
16.290	48993	0.88
16.293	49462	0.89
16.297	51255	0.92
16.300	51999	0.93
16.303	53691	0.96
16.307	56241	1.01
16.310	59075	1.06
16.313	61978	1.11
16.317	63400	1.14
16.320	64692	1.16
16.323	65030	1.17
16.327	64891	1.16
16.330	64875	1.16
16.333	64273	1.15
16.337	62089	1.11
16.340	58942	1.06
16.343	56292	1.01
16.347	54513	0.98
16.350	53227	0.96
16.353	52131	0.94
16.357	52050	0.93
16.360	50852	0.91
16.363	49413	0.89
16.367	48965	0.88
16.370	48322	0.87
16.373	48759	0.88
16.377	49060	0.88
16.380	48789	0.88
16.383	47761	0.86
16.387	46898	0.84
16.390	46443	0.83
16.393	46503	0.83
16.397	46926	0.84
16.400	46481	0.83
16.403	46285	0.83
16.407	46335	0.83
16.410	47294	0.85
16.413	48551	0.87
16.417	49075	0.88
16.420	51864	0.93
16.423	57813	1.04
16.427	66758	1.20
16.430	82596	1.48
16.433	103943	1.87
16.437	127210	2.28
16.440	147548	2.65
16.443	160261	2.88
16.447	160622	2.88
16.450	150787	2.71
16.453	135179	2.43
16.457	114942	2.06
16.460	92352	1.66
16.463	74059	1.33
16.467	62716	1.13
16.470	56631	1.02
16.473	51409	0.92
16.477	49143	0.88
16.480	49473	0.89
16.483	49155	0.88
16.487	48721	0.87
16.490	48897	0.88
16.493	49663	0.89
16.497	50421	0.91
16.500	50324	0.90
16.503	49694	0.89
16.507	49358	0.89
16.510	49135	0.88
16.513	48561	0.87
16.517	48676	0.87
16.520	48319	0.87
16.523	47297	0.85
16.527	46889	0.84
16.530	47204	0.85
16.533	47761	0.86
16.537	48381	0.87
16.540	48205	0.87
16.543	47957	0.86
16.547	48260	0.87
16.550	48767	0.88
16.553	48119	0.86
16.557	47286	0.85
16.560	47639	0.86
16.563	49039	0.88
16.567	50175	0.90
16.570	49656	0.89
16.573	51402	0.92
16.577	52277	0.94
16.580	51542	0.93
16.583	49669	0.89
16.587	48932	0.88
16.590	48980	0.88
16.593	48911	0.88
16.597	47928	0.86
16.600	47833	0.86
16.603	47822	0.86
16.607	47533	0.85
16.610	47531	0.85
16.613	47243	0.85
16.617	47223	0.85
16.620	47290	0.85
16.623	47327	0.85
16.627	47546	0.85
16.630	47631	0.86
16.633	47245	0.85
16.637	47245	0.85
16.640	47654	0.86
16.643	48162	0.86
16.647	48729	0.87
16.650	48731	0.87
16.653	48060	0.86
16.657	47846	0.86
16.660	48173	0.86
16.663	48309	0.87
16.667	48360	0.87
16.670	48135	0.86
16.673	47581	0.85
16.677	47790	0.86
16.680	47759	0.86
16.683	47810	0.86
16.687	48481	0.87
16.690	50206	0.90
16.693	51459	0.92
16.697	51794	0.93
16.700	52432	0.94
16.703	52517	0.94
16.707	52603	0.94
16.710	51853	0.93
16.713	49557	0.89
16.717	47932	0.86
16.720	46776	0.84
16.723	46486	0.83
16.727	46554	0.84
16.730	46717	0.84
16.733	47062	0.84
16.737	47686	0.86
16.740	47468	0.85
16.743	46717	0.84
16.747	46395	0.83
16.750	46375	0.83
16.753	46515	0.83
16.757	47182	0.85
16.760	48347	0.87
16.763	49246	0.88
16.767	50091	0.90
16.770	49947	0.90
16.773	49151	0.88
16.777	49840	0.89
16.780	49777	0.89
16.783	49276	0.88
16.787	48354	0.87
16.790	48693	0.87
16.793	49207	0.88
16.797	49616	0.89
16.800	49311	0.89
16.803	48821	0.88
16.807	48846	0.88
16.810	47732	0.86
16.813	47130	0.85
16.817	47867	0.86
16.820	48384	0.87
16.823	47804	0.86
16.827	47576	0.85
16.830	47660	0.86
16.833	47674	0.86
16.837	47604	0.85
16.840	47233	0.85
16.843	47278	0.85
16.847	47958	0.86
16.850	49183	0.88
16.853	49392	0.89
16.857	49170	0.88
16.860	49135	0.88
16.863	49328	0.89
16.867	49301	0.88
16.870	48263	0.87
16.873	48112	0.86
16.877	48440	0.87
16.880	48205	0.87
16.883	48724	0.87
16.887	48873	0.88
16.890	48322	0.87
16.893	47358	0.85
16.897	47975	0.86
16.900	48113	0.86
16.903	47353	0.85
16.907	47579	0.85
16.910	48309	0.87
16.913	49045	0.88
16.917	48462	0.87
16.920	48112	0.86
16.923	48161	0.86
16.927	47629	0.85
16.930	46985	0.84
16.933	47142	0.85
16.937	48003	0.86
16.940	48006	0.86
16.943	48147	0.86
16.947	48237	0.87
16.950	48364	0.87
16.953	48889	0.88
16.957	49658	0.89
16.960	49739	0.89
16.963	49061	0.88
16.967	49017	0.88
16.970	48541	0.87
16.973	47739	0.86
16.977	47843	0.86
16.980	47303	0.85
16.983	47404	0.85
16.987	47816	0.86
16.990	48081	0.86
16.993	48173	0.86
16.997	48268	0.87
17.000	47886	0.86
17.003	46964	0.84
17.007	47078	0.85
17.010	46987	0.84
17.013	47198	0.85
17.017	47316	0.85
17.020	47933	0.86
17.023	48906	0.88
17.027	49283	0.88
17.030	48526	0.87
17.033	48153	0.86
17.037	48488	0.87
17.040	49187	0.88
17.043	49084	0.88
17.047	48862	0.88
17.050	48522	0.87
17.053	48160	0.86
17.057	48210	0.87
17.060	48931	0.88
17.063	48984	0.88
17.067	48141	0.86
17.070	47998	0.86
17.073	48440	0.87
17.077	48699	0.87
17.080	49350	0.89
17.083	49535	0.89
17.087	49188	0.88
17.090	49387	0.89
17.093	49796	0.89
17.097	49716	0.89
17.100	49216	0.88
17.103	49446	0.89
17.107	48933	0.88
17.110	47439	0.85
17.113	46706	0.84
17.117	47115	0.85
17.120	47649	0.86
17.123	47747	0.86
17.127	45847	0.82
17.130	45226	0.81
17.133	45373	0.81
17.137	45238	0.81
17.140	45413	0.82
17.143	45542	0.82
17.147	46425	0.83
17.150	46805	0.84
17.153	47141	0.85
17.157	47331	0.85
17.160	47684	0.86
17.163	48749	0.88
17.167	49097	0.88
17.170	48197	0.87
17.173	47954	0.86
17.177	46885	0.84
17.180	46561	0.84
17.183	47268	0.85
17.187	47706	0.86
17.190	48223	0.87
17.193	48873	0.88
17.197	47928	0.86
17.200	46676	0.84
17.203	46519	0.84
17.207	47215	0.85
17.210	48455	0.87
17.213	49055	0.88
17.217	49486	0.89
17.220	49975	0.90
17.223	50745	0.91
17.227	51159	0.92
17.230	51212	0.92
17.233	51416	0.92
17.237	50620	0.91
17.240	49609	0.89
17.243	48954	0.88
17.247	49407	0.89
17.250	49585	0.89
17.253	49682	0.89
17.257	48907	0.88
17.260	48749	0.88
17.263	48661	0.87
17.267	49309	0.89
17.270	49472	0.89
17.273	49236	0.88
17.277	48937	0.88
17.280	49248	0.88
17.283	49468	0.89
17.287	49830	0.89
17.290	49732	0.89
17.293	50025	0.90
17.297	49734	0.89
17.300	48902	0.88
17.303	48811	0.88
17.307	49109	0.88
17.310	49357	0.89
17.313	49515	0.89
17.317	49584	0.89
17.320	49659	0.89
17.323	49140	0.88
17.327	48922	0.88
17.330	48549	0.87
17.333	48474	0.87
17.337	48602	0.87
17.340	48940	0.88
17.343	49114	0.88
17.347	48509	0.87
17.350	48190	0.87
17.353	48638	0.87
17.357	49180	0.88
17.360	49322	0.89
17.363	49354	0.89
17.367	47882	0.86
17.370	47184	0.85
17.373	47305	0.85
17.377	48185	0.86
17.380	47686	0.86
17.383	47317	0.85
17.387	47894	0.86
17.390	49265	0.88
17.393	49664	0.89
17.397	49280	0.88
17.400	47938	0.86
17.403	47254	0.85
17.407	47185	0.85
17.410	47393	0.85
17.413	47295	0.85
17.417	47042	0.84
17.420	47177	0.85
17.423	47497	0.85
17.427	48893	0.88
17.430	50131	0.90
17.433	52186	0.94
17.437	55892	1.00
17.440	59929	1.08
17.443	64706	1.16
17.447	71561	1.28
17.450	78778	1.41
17.453	84891	1.52
17.457	87322	1.57
17.460	84800	1.52
17.463	79049	1.42
17.467	71573	1.28
17.470	63715	1.14
17.473	58200	1.04
17.477	53907	0.97
17.480	50270	0.90
17.483	48842	0.88
17.487	48702	0.87
17.490	48821	0.88
17.493	48319	0.87
17.497	47384	0.85
17.500	48261	0.87
17.503	48537	0.87
17.507	48340	0.87
17.510	48377	0.87
17.513	48961	0.88
17.517	48123	0.86
17.520	47856	0.86
17.523	47830	0.86
17.527	47524	0.85
17.530	47572	0.85
17.533	47539	0.85
17.537	47480	0.85
17.540	47585	0.85
17.543	47720	0.86
17.547	47747	0.86
17.550	47711	0.86
17.553	47618	0.85
17.557	48158	0.86
17.560	47784	0.86
17.563	47464	0.85
17.567	47667	0.86
17.570	48296	0.87
17.573	49297	0.88
17.577	50180	0.90
17.580	50334	0.90
17.583	50235	0.90
17.587	50470	0.91
17.590	50249	0.90
17.593	48489	0.87
17.597	48245	0.87
17.600	48738	0.87
17.603	49038	0.88
17.607	48319	0.87
17.610	48982	0.88
17.613	49782	0.89
17.617	50301	0.90
17.620	50261	0.90
17.623	50212	0.90
17.627	50509	0.91
17.630	50354	0.90
17.633	49550	0.89
17.637	49586	0.89
17.640	50277	0.90
17.643	50405	0.90
17.647	49902	0.90
17.650	48935	0.88
17.653	48872	0.88
17.657	49180	0.88
17.660	49585	0.89
17.663	48648	0.87
17.667	48462	0.87
17.670	48788	0.88
17.673	49477	0.89
17.677	50039	0.90
17.680	49440	0.89
17.683	48838	0.88
17.687	48800	0.88
17.690	49431	0.89
17.693	49945	0.90
17.697	50022	0.90
17.700	50592	0.91
17.703	50656	0.91
17.707	50399	0.90
17.710	50134	0.90
17.713	49781	0.89
17.717	49105	0.88
17.720	49126	0.88
17.723	50218	0.90
17.727	50602	0.91
17.730	50001	0.90
17.733	49514	0.89
17.737	49331	0.89
17.740	49425	0.89
17.743	49320	0.89
17.747	49941	0.90
17.750	50408	0.90
17.753	50177	0.90
17.757	49398	0.89
17.760	49230	0.88
17.763	49180	0.88
17.767	49236	0.88
17.770	49360	0.89
17.773	49230	0.88
17.777	49231	0.88
17.780	48860	0.88
17.783	48223	0.87
17.787	48179	0.86
17.790	49111	0.88
17.793	48823	0.88
17.797	48914	0.88
17.800	48958	0.88
17.803	49183	0.88
17.807	49243	0.88
17.810	48773	0.88
17.813	48643	0.87
17.817	49461	0.89
17.820	49706	0.89
17.823	49544	0.89
17.827	49156	0.88
17.830	48941	0.88
17.833	48936	0.88
17.837	49029	0.88
17.840	48508	0.87
17.843	48487	0.87
17.847	48873	0.88
17.850	49407	0.89
17.853	49435	0.89
17.857	49679	0.89
17.860	49968	0.90
17.863	50545	0.91
17.867	49910	0.90
17.870	48937	0.88
17.873	48672	0.87
17.877	48531	0.87
17.880	48570	0.87
17.883	49213	0.88
17.887	49807	0.89
17.890	49665	0.89
17.893	49141	0.88
17.897	48971	0.88
17.900	49511	0.89
17.903	49746	0.89
17.907	48954	0.88
17.910	48720	0.87
17.913	48508	0.87
17.917	48767	0.88
17.920	49130	0.88
17.923	49037	0.88
17.927	48798	0.88
17.930	48879	0.88
17.933	49246	0.88
17.937	49074	0.88
17.940	48543	0.87
17.943	48467	0.87
17.947	49043	0.88
17.950	49587	0.89
17.953	49213	0.88
17.957	49366	0.89
17.960	51334	0.92
17.963	53931	0.97
17.967	54407	0.98
17.970	54365	0.98
17.973	54199	0.97
17.977	54328	0.98
17.980	55171	0.99
17.983	55596	1.00
17.987	54182	0.97
17.990	51647	0.93
17.993	50923	0.91
17.997	49272	0.88
18.000	48809	0.88
18.003	48673	0.87
18.007	48017	0.86
18.010	47628	0.85
18.013	48168	0.86
18.017	48334	0.87
18.020	48004	0.86
18.023	47958	0.86
18.027	48317	0.87
18.030	47565	0.85
18.033	47233	0.85
18.037	47552	0.85
18.040	47807	0.86
18.043	47450	0.85
18.047	47925	0.86
18.050	48223	0.87
18.053	48398	0.87
18.057	48573	0.87
18.060	48595	0.87
18.063	48677	0.87
18.067	47909	0.86
18.070	48545	0.87
18.073	48713	0.87
18.077	49311	0.89
18.080	48773	0.88
18.083	48328	0.87
18.087	47413	0.85
18.090	46170	0.83
18.093	46022	0.83
18.097	46338	0.83
18.100	46995	0.84
18.103	47119	0.85
18.107	47576	0.85
18.110	47850	0.86
18.113	47707	0.86
18.117	47402	0.85
18.120	47807	0.86
18.123	48186	0.86
18.127	48432	0.87
18.130	48369	0.87
18.133	48385	0.87
18.137	48486	0.87
18.140	49082	0.88
18.143	49487	0.89
18.147	49501	0.89
18.150	49560	0.89
18.153	49779	0.89
18.157	50627	0.91
18.160	52112	0.94
18.163	52408	0.94
18.167	51757	0.93
18.170	50681	0.91
18.173	50560	0.91
18.177	50204	0.90
18.180	50389	0.90
18.183	50484	0.91
18.187	50300	0.90
18.190	50303	0.90
18.193	50130	0.90
18.197	50029	0.90
18.200	49545	0.89
18.203	49347	0.89
18.207	49316	0.89
18.210	49589	0.89
18.213	49424	0.89
18.217	48463	0.87
18.220	48789	0.88
18.223	48852	0.88
18.227	49444	0.89
18.230	49723	0.89
18.233	50389	0.90
18.237	49917	0.90
18.240	48953	0.88
18.243	48427	0.87
18.247	48925	0.88
18.250	49815	0.89
18.253	49269	0.88
18.257	49285	0.88
18.260	48853	0.88
18.263	48561	0.87
18.267	48619	0.87
18.270	48797	0.88
18.273	49344	0.89
18.277	49723	0.89
18.280	49913	0.90
18.283	50256	0.90
18.287	50257	0.90
18.290	50509	0.91
18.293	50205	0.90
18.297	50324	0.90
18.300	49777	0.89
18.303	49489	0.89
18.307	49311	0.89
18.310	49326	0.89
18.313	49450	0.89
18.317	48817	0.88
18.320	49181	0.88
18.323	49429	0.89
18.327	48759	0.88
18.330	49373	0.89
18.333	50492	0.91
18.337	50676	0.91
18.340	50683	0.91
18.343	50430	0.91
18.347	50472	0.91
18.350	50268	0.90
18.353	51394	0.92
18.357	53436	0.96
18.360	54875	0.99
18.363	56236	1.01
18.367	56551	1.02
18.370	56456	1.01
18.373	56171	1.01
18.377	54739	0.98
18.380	53517	0.96
18.383	53192	0.95
18.387	53012	0.95
18.390	52499	0.94
18.393	51908	0.93
18.397	50651	0.91
18.400	50573	0.91
18.403	52632	0.94
18.407	56328	1.01
18.410	61650	1.11
18.413	67667	1.21
18.417	74917	1.34
18.420	80928	1.45
18.423	85263	1.53
18.427	86165	1.55
18.430	83757	1.50
18.433	79251	1.42
18.437	75345	1.35
18.440	70186	1.26
18.443	62861	1.13
18.447	57357	1.03
18.450	55775	1.00
18.453	55127	0.99
18.457	53178	0.95
18.460	52739	0.95
18.463	52755	0.95
18.467	52710	0.95
18.470	52592	0.94
18.473	52196	0.94
18.477	51859	0.93
18.480	51785	0.93
18.483	51785	0.93
18.487	51582	0.93
18.490	51723	0.93
18.493	52031	0.93
18.497	51994	0.93
18.500	52506	0.94
18.503	52880	0.95
18.507	52578	0.94
18.510	52734	0.95
18.513	52779	0.95
18.517	52835	0.95
18.520	52730	0.95
18.523	52411	0.94
18.527	52738	0.95
18.530	52426	0.94
18.533	52083	0.93
18.537	52144	0.94
18.540	51782	0.93
18.543	51716	0.93
18.547	51574	0.93
18.550	51850	0.93
18.553	52269	0.94
18.557	53147	0.95
18.560	52804	0.95
18.563	52217	0.94
18.567	52393	0.94
18.570	52754	0.95
18.573	53032	0.95
18.577	53820	0.97
18.580	53627	0.96
18.583	52512	0.94
18.587	52235	0.94
18.590	52606	0.94
18.593	52674	0.95
18.597	53623	0.96
18.600	53830	0.97
18.603	53046	0.95
18.607	52729	0.95
18.610	53036	0.95
18.613	53677	0.96
18.617	53858	0.97
18.620	53483	0.96
18.623	52553	0.94
18.627	52958	0.95
18.630	52861	0.95
18.633	53045	0.95
18.637	53309	0.96
18.640	53555	0.96
18.643	53613	0.96
18.647	53243	0.96
18.650	53701	0.96
18.653	54656	0.98
18.657	56256	1.01
18.660	57898	1.04
18.663	58157	1.04
18.667	57502	1.03
18.670	56267	1.01
18.673	55663	1.00
18.677	54885	0.99
18.680	53940	0.97
18.683	53163	0.95
18.687	52900	0.95
18.690	52950	0.95
18.693	53595	0.96
18.697	53344	0.96
18.700	52859	0.95
18.703	53088	0.95
18.707	53758	0.96
18.710	53864	0.97
18.713	53443	0.96
18.717	53569	0.96
18.720	54035	0.97
18.723	54019	0.97
18.727	53955	0.97
18.730	53634	0.96
18.733	53486	0.96
18.737	53677	0.96
18.740	52983	0.95
18.743	52929	0.95
18.747	53772	0.97
18.750	54512	0.98
18.753	54145	0.97
18.757	53971	0.97
18.760	55156	0.99
18.763	55888	1.00
18.767	55330	0.99
18.770	53534	0.96
18.773	53506	0.96
18.777	53977	0.97
18.780	55462	1.00
18.783	55200	0.99
18.787	56102	1.01
18.790	56200	1.01
18.793	55841	1.00
18.797	53985	0.97
18.800	53282	0.96
18.803	53570	0.96
18.807	53814	0.97
18.810	54220	0.97
18.813	54823	0.98
18.817	54866	0.98
18.820	54909	0.99
18.823	54772	0.98
18.827	55977	1.00
18.830	55576	1.00
18.833	56177	1.01
18.837	56358	1.01
18.840	56036	1.01
18.843	55416	0.99
18.847	54659	0.98
18.850	54777	0.98
18.853	54396	0.98
18.857	55015	0.99
18.860	55380	0.99
18.863	54765	0.98
18.867	54439	0.98
18.870	54424	0.98
18.873	54128	0.97
18.877	54300	0.97
18.880	54801	0.98
18.883	54568	0.98
18.887	54218	0.97
18.890	53933	0.97
18.893	53768	0.97
18.897	53535	0.96
18.900	53318	0.96
18.903	54356	0.98
18.907	56417	1.01
18.910	57059	1.02
18.913	56639	1.02
18.917	57143	1.03
18.920	57894	1.04
18.923	57510	1.03
18.927	56720	1.02
18.930	57357	1.03
18.933	57537	1.03
18.937	57046	1.02
18.940	56186	1.01
18.943	55688	1.00
18.947	55914	1.00
18.950	55968	1.00
18.953	56611	1.02
18.957	56888	1.02
18.960	58017	1.04
18.963	57823	1.04
18.967	57296	1.03
18.970	56604	1.02
18.973	56907	1.02
18.977	58106	1.04
18.980	58112	1.04
18.983	57230	1.03
18.987	57375	1.03
18.990	58043	1.04
18.993	58400	1.05
18.997	59183	1.06
19.000	59619	1.07
19.003	59512	1.07
19.007	59240	1.06
19.010	59200	1.06
19.013	59378	1.07
19.017	59609	1.07
19.020	59407	1.07
19.023	59050	1.06
19.027	58832	1.06
19.030	58283	1.05
19.033	58813	1.06
19.037	59280	1.06
19.040	59295	1.06
19.043	59023	1.06
19.047	58746	1.05
19.050	58360	1.05
19.053	58420	1.05
19.057	59075	1.06
19.060	59465	1.07
19.063	58948	1.06
19.067	58570	1.05
19.070	58457	1.05
19.073	58584	1.05
19.077	59319	1.06
19.080	59187	1.06
19.083	59202	1.06
19.087	59225	1.06
19.090	59128	1.06
19.093	59021	1.06
19.097	58779	1.06
19.100	58766	1.05
19.103	59085	1.06
19.107	60019	1.08
19.110	59730	1.07
19.113	59316	1.06
19.117	59134	1.06
19.120	59152	1.06
19.123	58778	1.06
19.127	58583	1.05
19.130	58231	1.05
19.133	58414	1.05
19.137	58511	1.05
19.140	59277	1.06
19.143	59693	1.07
19.147	59623	1.07
19.150	59491	1.07
19.153	59528	1.07
19.157	59695	1.07
19.160	59521	1.07
19.163	59533	1.07
19.167	59392	1.07
19.170	59178	1.06
19.173	59426	1.07
19.177	59294	1.06
19.180	59131	1.06
19.183	59133	1.06
19.187	59521	1.07
19.190	60464	1.09
19.193	61427	1.10
19.197	60475	1.09
19.200	59809	1.07
19.203	59614	1.07
19.207	59551	1.07
19.210	60154	1.08
19.213	60448	1.09
19.217	60608	1.09
19.220	61243	1.10
19.223	61549	1.10
19.227	62066	1.11
19.230	63168	1.13
19.233	64986	1.17
19.237	66098	1.19
19.240	67107	1.20
19.243	67149	1.21
19.247	66736	1.20
19.250	65490	1.18
19.253	63604	1.14
19.257	62127	1.12
19.260	62226	1.12
19.263	62540	1.12
19.267	62175	1.12
19.270	61829	1.11
19.273	62221	1.12
19.277	63187	1.13
19.280	64513	1.16
19.283	62897	1.13
19.287	62103	1.11
19.290	61784	1.11
19.293	61678	1.11
19.297	62066	1.11
19.300	62208	1.12
19.303	62075	1.11
19.307	62359	1.12
19.310	62385	1.12
19.313	62388	1.12
19.317	62453	1.12
19.320	62313	1.12
19.323	62215	1.12
19.327	62944	1.13
19.330	63780	1.14
19.333	63989	1.15
19.337	65939	1.18
19.340	68267	1.23
19.343	69534	1.25
19.347	70144	1.26
19.350	70465	1.26
19.353	70381	1.26
19.357	69255	1.24
19.360	67056	1.20
19.363	65821	1.18
19.367	63901	1.15
19.370	62081	1.11
19.373	61249	1.10
19.377	61927	1.11
19.380	61892	1.11
19.383	61683	1.11
19.387	61340	1.10
19.390	62135	1.12
19.393	62344	1.12
19.397	62621	1.12
19.400	62916	1.13
19.403	62760	1.13
19.407	62785	1.13
19.410	62894	1.13
19.413	61819	1.11
19.417	60910	1.09
19.420	60815	1.09
19.423	60995	1.09
19.427	61611	1.11
19.430	62026	1.11
19.433	62157	1.12
19.437	62290	1.12
19.440	62511	1.12
19.443	62304	1.12
19.447	61732	1.11
19.450	61932	1.11
19.453	61586	1.11
19.457	61405	1.10
19.460	62098	1.11
19.463	63234	1.14
19.467	63197	1.13
19.470	64294	1.15
19.473	65213	1.17
19.477	64821	1.16
19.480	63963	1.15
19.483	63309	1.14
19.487	62521	1.12
19.490	62472	1.12
19.493	62091	1.11
19.497	61919	1.11
19.500	62357	1.12
19.503	62823	1.13
19.507	62344	1.12
19.510	62125	1.12
19.513	62259	1.12
19.517	62801	1.13
19.520	63048	1.13
19.523	62757	1.13
19.527	62154	1.12
19.530	61876	1.11
19.533	62055	1.11
19.537	62777	1.13
19.540	62090	1.11
19.543	61058	1.10
19.547	60683	1.09
19.550	61736	1.11
19.553	61876	1.11
19.557	60620	1.09
19.560	61200	1.10
19.563	62559	1.12
19.567	62517	1.12
19.570	60858	1.09
19.573	60382	1.08
19.577	60504	1.09
19.580	61873	1.11
19.583	62360	1.12
19.587	62012	1.11
19.590	61188	1.10
19.593	61266	1.10
19.597	61743	1.11
19.600	62333	1.12
19.603	63536	1.14
19.607	64128	1.15
19.610	64238	1.15
19.613	64266	1.15
19.617	64303	1.15
19.620	63844	1.15
19.623	64086	1.15
19.627	64467	1.16
19.630	64266	1.15
19.633	64381	1.16
19.637	64378	1.16
19.640	63357	1.14
19.643	61902	1.11
19.647	62449	1.12
19.650	63311	1.14
19.653	63894	1.15
19.657	63729	1.14
19.660	63827	1.15
19.663	63446	1.14
19.667	62768	1.13
19.670	63542	1.14
19.673	63768	1.14
19.677	63577	1.14
19.680	64363	1.16
19.683	65015	1.17
19.687	64604	1.16
19.690	63853	1.15
19.693	64103	1.15
19.697	64456	1.16
19.700	65184	1.17
19.703	65352	1.17
19.707	64897	1.16
19.710	64903	1.17
19.713	65016	1.17
19.717	64507	1.16
19.720	64354	1.16
19.723	65310	1.17
19.727	66017	1.19
19.730	64596	1.16
19.733	64327	1.15
19.737	64860	1.16
19.740	65224	1.17
19.743	64805	1.16
19.747	63707	1.14
19.750	64110	1.15
19.753	64993	1.17
19.757	65209	1.17
19.760	65245	1.17
19.763	65580	1.18
19.767	65260	1.17
19.770	64889	1.16
19.773	64983	1.17
19.777	65250	1.17
19.780	66337	1.19
19.783	66787	1.20
19.787	67907	1.22
19.790	68480	1.23
19.793	70053	1.26
19.797	70592	1.27
19.800	70728	1.27
19.803	70706	1.27
19.807	70397	1.26
19.810	70037	1.26
19.813	69264	1.24
19.817	67719	1.22
19.820	68033	1.22
19.823	68182	1.22
19.827	67977	1.22
19.830	67964	1.22
19.833	68052	1.22
19.837	67711	1.22
19.840	67159	1.21
19.843	66833	1.20
19.847	65442	1.17
19.850	67374	1.21
19.853	68371	1.23
19.857	70023	1.26
19.860	70322	1.26
19.863	70775	1.27
19.867	70539	1.27
19.870	69850	1.25
19.873	69682	1.25
19.877	69105	1.24
19.880	69297	1.24
19.883	69027	1.24
19.887	70092	1.26
19.890	70580	1.27
19.893	70039	1.26
19.897	70094	1.26
19.900	70104	1.26
19.903	70150	1.26
19.907	70242	1.26
19.910	70339	1.26
19.913	70531	1.27
19.917	71313	1.28
19.920	70801	1.27
19.923	70179	1.26
19.927	69018	1.24
19.930	70049	1.26
19.933	70274	1.26
19.937	70840	1.27
19.940	70988	1.27
19.943	70764	1.27
19.947	71271	1.28
19.950	71507	1.28
19.953	71345	1.28
19.957	70510	1.27
19.960	69900	1.25
19.963	70406	1.26
19.967	70483	1.27
19.970	69773	1.25
19.973	69901	1.25
19.977	71006	1.27
19.980	71811	1.29
19.983	71475	1.28
19.987	71022	1.27
19.990	70635	1.27
19.993	70586	1.27
19.997	70314	1.26
20.000	70041	1.26
20.003	70245	1.26
20.007	70312	1.26
20.010	70062	1.26
20.013	70657	1.27
20.017	70421	1.26
20.020	69910	1.25
20.023	70300	1.26
20.027	70906	1.27
20.030	71970	1.29
20.033	72366	1.30
20.037	72190	1.30
20.040	72167	1.30
20.043	72728	1.31
20.047	72354	1.30
20.050	72019	1.29
20.053	72081	1.29
20.057	72237	1.30
20.060	72151	1.30
20.063	72000	1.29
20.067	71874	1.29
20.070	72288	1.30
20.073	72675	1.30
20.077	72314	1.30
20.080	71801	1.29
20.083	72209	1.30
20.087	72191	1.30
20.090	71435	1.28
20.093	71336	1.28
20.097	72188	1.30
20.100	72295	1.30
20.103	72536	1.30
20.107	72369	1.30
20.110	72469	1.30
20.113	72284	1.30
20.117	72119	1.29
20.120	71376	1.28
20.123	70962	1.27
20.127	71655	1.29
20.130	72420	1.30
20.133	72557	1.30
20.137	72715	1.31
20.140	73611	1.32
20.143	75167	1.35
20.147	75346	1.35
20.150	74549	1.34
20.153	72782	1.31
20.157	72356	1.30
20.160	73396	1.32
20.163	74293	1.33
20.167	74195	1.33
20.170	73956	1.33
20.173	75553	1.36
20.177	76711	1.38
20.180	76595	1.37
20.183	76341	1.37
20.187	75626	1.36
20.190	76360	1.37
20.193	78317	1.41
20.197	78341	1.41
20.200	77995	1.40
20.203	78322	1.41
20.207	79183	1.42
20.210	78857	1.42
20.213	77970	1.40
20.217	77924	1.40
20.220	78203	1.40
20.223	79106	1.42
20.227	80519	1.45
20.230	81324	1.46
20.233	81772	1.47
20.237	82077	1.47
20.240	81924	1.47
20.243	80961	1.45
20.247	79200	1.42
20.250	78005	1.40
20.253	76891	1.38
20.257	76067	1.37
20.260	76397	1.37
20.263	78065	1.40
20.267	78817	1.41
20.270	77933	1.40
20.273	77708	1.39
20.277	78490	1.41
20.280	79139	1.42
20.283	79020	1.42
20.287	78060	1.40
20.290	77865	1.40
20.293	78347	1.41
20.297	78212	1.40
20.300	77831	1.40
20.303	77698	1.39
20.307	77957	1.40
20.310	78210	1.40
20.313	79524	1.43
20.317	79946	1.44
20.320	79699	1.43
20.323	79517	1.43
20.327	79678	1.43
20.330	80006	1.44
20.333	79955	1.44
20.337	80534	1.45
20.340	80484	1.44
20.343	80003	1.44
20.347	80587	1.45
20.350	81109	1.46
20.353	80044	1.44
20.357	79214	1.42
20.360	79969	1.44
20.363	80694	1.45
20.367	81283	1.46
20.370	81958	1.47
20.373	82104	1.47
20.377	81872	1.47
20.380	81500	1.46
20.383	81523	1.46
20.387	81515	1.46
20.390	81843	1.47
20.393	84046	1.51
20.397	85395	1.53
20.400	87101	1.56
20.403	87391	1.57
20.407	87488	1.57
20.410	87610	1.57
20.413	87630	1.57
20.417	87532	1.57
20.420	87426	1.57
20.423	84316	1.51
20.427	81584	1.46
20.430	80653	1.45
20.433	80914	1.45
20.437	81812	1.47
20.440	81843	1.47
20.443	81853	1.47
20.447	81294	1.46
20.450	80836	1.45
20.453	80110	1.44
20.457	80213	1.44
20.460	81279	1.46
20.463	81274	1.46
20.467	81053	1.45
20.470	81323	1.46
20.473	81670	1.47
20.477	81760	1.47
20.480	82071	1.47
20.483	81615	1.47
20.487	81527	1.46
20.490	82024	1.47
20.493	82315	1.48
20.497	81861	1.47
20.500	81707	1.47
20.503	83023	1.49
20.507	83676	1.50
20.510	83028	1.49
20.513	82189	1.48
20.517	82488	1.48
20.520	82939	1.49
20.523	83145	1.49
20.527	83577	1.50
20.530	83416	1.50
20.533	82779	1.49
20.537	83054	1.49
20.540	83452	1.50
20.543	83452	1.50
20.547	83125	1.49
20.550	82723	1.48
20.553	83085	1.49
20.557	84137	1.51
20.560	84440	1.52
20.563	84817	1.52
20.567	83857	1.51
20.570	82783	1.49
20.573	82505	1.48
20.577	82408	1.48
20.580	82780	1.49
20.583	83838	1.50
20.587	84050	1.51
20.590	83437	1.50
20.593	83719	1.50
20.597	84331	1.51
20.600	83379	1.50
20.603	82676	1.48
20.607	84015	1.51
20.610	84138	1.51
20.613	82974	1.49
20.617	82940	1.49
20.620	83528	1.50
20.623	84851	1.52
20.627	85594	1.54
20.630	85357	1.53
20.633	85157	1.53
20.637	85582	1.54
20.640	85621	1.54
20.643	85697	1.54
20.647	85740	1.54
20.650	85555	1.54
20.653	85678	1.54
20.657	85871	1.54
20.660	85744	1.54
20.663	85776	1.54
20.667	85812	1.54
20.670	85654	1.54
20.673	85893	1.54
20.677	85589	1.54
20.680	83921	1.51
20.683	83909	1.51
20.687	84510	1.52
20.690	84487	1.52
20.693	84244	1.51
20.697	83979	1.51
20.700	83971	1.51
20.703	85192	1.53
20.707	85926	1.54
20.710	86509	1.55
20.713	86481	1.55
20.717	85777	1.54
20.720	85550	1.54
20.723	85672	1.54
20.727	85639	1.54
20.730	85892	1.54
20.733	86200	1.55
20.737	86201	1.55
20.740	86177	1.55
20.743	86616	1.55
20.747	87054	1.56
20.750	86377	1.55
20.753	85852	1.54
20.757	86111	1.55
20.760	86633	1.56
20.763	87128	1.56
20.767	87517	1.57
20.770	86521	1.55
20.773	86183	1.55
20.777	86176	1.55
20.780	86470	1.55
20.783	86391	1.55
20.787	85980	1.54
20.790	86270	1.55
20.793	86815	1.56
20.797	87733	1.57
20.800	89397	1.60
20.803	90235	1.62
20.807	90206	1.62
20.810	90235	1.62
20.813	90492	1.62
20.817	90537	1.63
20.820	90276	1.62
20.823	89354	1.60
20.827	87698	1.57
20.830	87325	1.57
20.833	89048	1.60
20.837	89230	1.60
20.840	88972	1.60
20.843	89199	1.60
20.847	90293	1.62
20.850	90918	1.63
20.853	90896	1.63
20.857	90810	1.63
20.860	89426	1.61
20.863	89010	1.60
20.867	89290	1.60
20.870	90082	1.62
20.873	90677	1.63
20.877	89944	1.61
20.880	89044	1.60
20.883	89653	1.61
20.887	91179	1.64
20.890	91313	1.64
20.893	91205	1.64
20.897	91258	1.64
20.900	91227	1.64
20.903	91131	1.64
20.907	90854	1.63
20.910	91472	1.64
20.913	91786	1.65
20.917	91398	1.64
20.920	91350	1.64
20.923	91146	1.64
20.927	91409	1.64
20.930	92452	1.66
20.933	92334	1.66
20.937	91604	1.64
20.940	91419	1.64
20.943	91513	1.64
20.947	91777	1.65
20.950	91623	1.64
20.953	91618	1.64
20.957	92071	1.65
20.960	92684	1.66
20.963	93686	1.68
20.967	94569	1.70
20.970	95127	1.71
20.973	95482	1.71
20.977	95650	1.72
20.980	95687	1.72
20.983	96210	1.73
20.987	96350	1.73
20.990	96308	1.73
20.993	96582	1.73
20.997	95721	1.72
21.000	95357	1.71
21.003	95771	1.72
21.007	96337	1.73
21.010	95934	1.72
21.013	96807	1.74
21.017	96964	1.74
21.020	97525	1.75
21.023	98314	1.76
21.027	98030	1.76
21.030	97177	1.74
21.033	97186	1.74
21.037	98969	1.78
21.040	98821	1.77
21.043	98363	1.77
21.047	99119	1.78
21.050	100247	1.80
21.053	100663	1.81
21.057	100538	1.80
21.060	99172	1.78
21.063	99739	1.79
21.067	100540	1.80
21.070	101300	1.82
21.073	101026	1.81
21.077	102950	1.85
21.080	103639	1.86
21.083	103600	1.86
21.087	103207	1.85
21.090	102807	1.85
21.093	102789	1.85
21.097	103084	1.85
21.100	103437	1.86
21.103	103293	1.85
21.107	103544	1.86
21.110	103486	1.86
21.113	103040	1.85
21.117	101605	1.82
21.120	101587	1.82
21.123	102592	1.84
21.127	103006	1.85
21.130	103080	1.85
21.133	103498	1.86
21.137	103525	1.86
21.140	102751	1.84
21.143	100992	1.81
21.147	100832	1.81
21.150	102777	1.84
21.153	102859	1.85
21.157	102788	1.85
21.160	103083	1.85
21.163	102930	1.85
21.167	102733	1.84
21.170	102673	1.84
21.173	102673	1.84
21.177	103015	1.85
21.180	103258	1.85
21.183	103062	1.85
21.187	103203	1.85
21.190	103587	1.86
21.193	103923	1.87
21.197	105826	1.90
21.200	107409	1.93
21.203	105423	1.89
21.207	104807	1.88
21.210	104185	1.87
21.213	103664	1.86
21.217	104544	1.88
21.220	105009	1.88
21.223	105186	1.89
21.227	104967	1.88
21.230	104758	1.88
21.233	104380	1.87
21.237	104509	1.88
21.240	104288	1.87
21.243	104652	1.88
21.247	105053	1.89
21.250	104271	1.87
21.253	103908	1.87
21.257	104956	1.88
21.260	106028	1.90
21.263	106223	1.91
21.267	106331	1.91
21.270	105301	1.89
21.273	105173	1.89
21.277	107018	1.92
21.280	108566	1.95
21.283	108695	1.95
21.287	108641	1.95
21.290	108925	1.96
21.293	108930	1.96
21.297	108645	1.95
21.300	108381	1.95
21.303	108692	1.95
21.307	109161	1.96
21.310	109408	1.96
21.313	109497	1.97
21.317	109458	1.96
21.320	110755	1.99
21.323	111663	2.00
21.327	111856	2.01
21.330	111519	2.00
21.333	109720	1.97
21.337	108928	1.96
21.340	109627	1.97
21.343	111479	2.00
21.347	111686	2.00
21.350	111513	2.00
21.353	111779	2.01
21.357	111600	2.00
21.360	111680	2.00
21.363	112013	2.01
21.367	111637	2.00
21.370	110054	1.98
21.373	110321	1.98
21.377	111831	2.01
21.380	112190	2.01
21.383	113020	2.03
21.387	113007	2.03
21.390	112346	2.02
21.393	112113	2.01
21.397	111765	2.01
21.400	111531	2.00
21.403	111885	2.01
21.407	112465	2.02
21.410	113135	2.03
21.413	112634	2.02
21.417	112350	2.02
21.420	112357	2.02
21.423	112166	2.01
21.427	112169	2.01
21.430	112084	2.01
21.433	112612	2.02
21.437	112188	2.01
21.440	112041	2.01
21.443	112452	2.02
21.447	112568	2.02
21.450	112243	2.01
21.453	113322	2.03
21.457	115032	2.06
21.460	114953	2.06
21.463	114848	2.06
21.467	114764	2.06
21.470	114879	2.06
21.473	114595	2.06
21.477	113175	2.03
21.480	112465	2.02
21.483	113834	2.04
21.487	114482	2.06
21.490	114431	2.05
21.493	115093	2.07
21.497	116704	2.09
21.500	118397	2.13
21.503	120521	2.16
21.507	122561	2.20
21.510	123766	2.22
21.513	124487	2.23
21.517	124913	2.24
21.520	123931	2.22
21.523	121928	2.19
21.527	120249	2.16
21.530	119038	2.14
21.533	118549	2.13
21.537	118174	2.12
21.540	118004	2.12
21.543	116335	2.09
21.547	115143	2.07
21.550	116462	2.09
21.553	117530	2.11
21.557	118385	2.13
21.560	117980	2.12
21.563	116589	2.09
21.567	116916	2.10
21.570	117671	2.11
21.573	116949	2.10
21.577	116635	2.09
21.580	118372	2.12
21.583	118739	2.13
21.587	119378	2.14
21.590	119484	2.14
21.593	119466	2.14
21.597	119228	2.14
21.600	118623	2.13
21.603	118041	2.12
21.607	118298	2.12
21.610	119016	2.14
21.613	119462	2.14
21.617	119833	2.15
21.620	119695	2.15
21.623	119647	2.15
21.627	119404	2.14
21.630	119491	2.14
21.633	119897	2.15
21.637	119767	2.15
21.640	121431	2.18
21.643	122127	2.19
21.647	122338	2.20
21.650	122468	2.20
21.653	120631	2.17
21.657	120019	2.15
21.660	121126	2.17
21.663	121851	2.19
21.667	121016	2.17
21.670	121213	2.18
21.673	122101	2.19
21.677	122769	2.20
21.680	124047	2.23
21.683	125270	2.25
21.687	125697	2.26
21.690	125438	2.25
21.693	125016	2.24
21.697	125323	2.25
21.700	125486	2.25
21.703	124073	2.23
21.707	123382	2.21
21.710	121543	2.18
21.713	121570	2.18
21.717	122347	2.20
21.720	123375	2.21
21.723	123728	2.22
21.727	123016	2.21
21.730	122159	2.19
21.733	121965	2.19
21.737	122480	2.20
21.740	122281	2.20
21.743	122341	2.20
21.747	122243	2.19
21.750	121858	2.19
21.753	121899	2.19
21.757	121787	2.19
21.760	122915	2.21
21.763	123691	2.22
21.767	124425	2.23
21.770	124602	2.24
21.773	123062	2.21
21.777	122439	2.20
21.780	122380	2.20
21.783	122376	2.20
21.787	122660	2.20
21.790	123112	2.21
21.793	123816	2.22
21.797	125178	2.25
21.800	126191	2.27
21.803	126350	2.27
21.807	126755	2.28
21.810	127606	2.29
21.813	129649	2.33
21.817	130544	2.34
21.820	132293	2.37
21.823	133222	2.39
21.827	133310	2.39
21.830	133267	2.39
21.833	132861	2.38
21.837	133324	2.39
21.840	134386	2.41
21.843	133329	2.39
21.847	131231	2.36
21.850	130400	2.34
21.853	130413	2.34
21.857	130561	2.34
21.860	130489	2.34
21.863	131299	2.36
21.867	132995	2.39
21.870	133520	2.40
21.873	133382	2.39
21.877	133178	2.39
21.880	133095	2.39
21.883	133285	2.39
21.887	134046	2.41
21.890	135223	2.43
21.893	134764	2.42
21.897	134288	2.41
21.900	134901	2.42
21.903	136101	2.44
21.907	137358	2.47
21.910	137398	2.47
21.913	135362	2.43
21.917	133620	2.40
21.920	133421	2.39
21.923	133229	2.39
21.927	133706	2.40
21.930	133441	2.40
21.933	132741	2.38
21.937	132848	2.38
21.940	132873	2.39
21.943	132904	2.39
21.947	133337	2.39
21.950	133602	2.40
21.953	132828	2.38
21.957	132785	2.38
21.960	132979	2.39
21.963	133421	2.39
21.967	134184	2.41
21.970	133810	2.40
21.973	133420	2.39
21.977	133238	2.39
21.980	132902	2.39
21.983	133335	2.39
21.987	133063	2.39
21.990	133058	2.39
21.993	134609	2.42
21.997	135060	2.42
22.000	134589	2.42
22.003	135084	2.42
22.007	134960	2.42
22.010	134047	2.41
22.013	134360	2.41
22.017	134383	2.41
22.020	134645	2.42
22.023	135586	2.43
22.027	135367	2.43
22.030	134929	2.42
22.033	135885	2.44
22.037	135495	2.43
22.040	134131	2.41
22.043	134180	2.41
22.047	134238	2.41
22.050	134368	2.41
22.053	134986	2.42
22.057	135391	2.43
22.060	134978	2.42
22.063	134964	2.42
22.067	135363	2.43
22.070	136382	2.45
22.073	135762	2.44
22.077	136049	2.44
22.080	136471	2.45
22.083	136623	2.45
22.087	136377	2.45
22.090	136667	2.45
22.093	137696	2.47
22.097	137381	2.47
22.100	136386	2.45
22.103	135504	2.43
22.107	135025	2.42
22.110	136705	2.45
22.113	138050	2.48
22.117	138102	2.48
22.120	138672	2.49
22.123	140325	2.52
22.127	140855	2.53
22.130	139504	2.50
22.133	137773	2.47
22.137	137895	2.48
22.140	138456	2.49
22.143	138155	2.48
22.147	137613	2.47
22.150	137200	2.46
22.153	137114	2.46
22.157	137347	2.47
22.160	137479	2.47
22.163	137787	2.47
22.167	138155	2.48
22.170	140135	2.52
22.173	140759	2.53
22.177	140985	2.53
22.180	141580	2.54
22.183	141473	2.54
22.187	141502	2.54
22.190	141948	2.55
22.193	141830	2.55
22.197	141045	2.53
22.200	141312	2.54
22.203	141743	2.54
22.207	141823	2.55
22.210	141346	2.54
22.213	141385	2.54
22.217	141864	2.55
22.220	141850	2.55
22.223	141946	2.55
22.227	142072	2.55
22.230	141634	2.54
22.233	141948	2.55
22.237	144980	2.60
22.240	146049	2.62
22.243	145794	2.62
22.247	146035	2.62
22.250	145907	2.62
22.253	145647	2.61
22.257	145407	2.61
22.260	145027	2.60
22.263	145427	2.61
22.267	147054	2.64
22.270	148491	2.67
22.273	146588	2.63
22.277	146149	2.62
22.280	146688	2.63
22.283	146497	2.63
22.287	146059	2.62
22.290	146225	2.62
22.293	148121	2.66
22.297	148112	2.66
22.300	146253	2.63
22.303	145418	2.61
22.307	146077	2.62
22.310	147807	2.65
22.313	146631	2.63
22.317	146088	2.62
22.320	146219	2.62
22.323	146243	2.63
22.327	146133	2.62
22.330	146025	2.62
22.333	145948	2.62
22.337	146381	2.63
22.340	146376	2.63
22.343	145876	2.62
22.347	144931	2.60
22.350	146168	2.62
22.353	148361	2.66
22.357	147953	2.66
22.360	146874	2.64
22.363	147974	2.66
22.367	149352	2.68
22.370	148855	2.67
22.373	148627	2.67
22.377	148688	2.67
22.380	149159	2.68
22.383	149218	2.68
22.387	149041	2.68
22.390	149803	2.69
22.393	149835	2.69
22.397	149632	2.69
22.400	149914	2.69
22.403	149985	2.69
22.407	149711	2.69
22.410	150144	2.70
22.413	149561	2.68
22.417	148724	2.67
22.420	149312	2.68
22.423	150714	2.71
22.427	152428	2.74
22.430	152240	2.73
22.433	151214	2.71
22.437	151318	2.72
22.440	151608	2.72
22.443	151136	2.71
22.447	150412	2.70
22.450	150456	2.70
22.453	151053	2.71
22.457	151167	2.71
22.460	150374	2.70
22.463	150169	2.70
22.467	151262	2.72
22.470	150805	2.71
22.473	149378	2.68
22.477	149330	2.68
22.480	149099	2.68
22.483	149338	2.68
22.487	150511	2.70
22.490	151731	2.72
22.493	151777	2.72
22.497	150266	2.70
22.500	150430	2.70
22.503	150634	2.70
22.507	151969	2.73
22.510	152270	2.73
22.513	152056	2.73
22.517	152166	2.73
22.520	152843	2.74
22.523	154392	2.77
22.527	155682	2.79
22.530	155919	2.80
22.533	155666	2.79
22.537	155602	2.79
22.540	155782	2.80
22.543	155719	2.80
22.547	155493	2.79
22.550	155312	2.79
22.553	155420	2.79
22.557	155631	2.79
22.560	156552	2.81
22.563	157176	2.82
22.567	158444	2.84
22.570	158595	2.85
22.573	158724	2.85
22.577	159496	2.86
22.580	160501	2.88
22.583	162405	2.92
22.587	163525	2.94
22.590	164034	2.94
22.593	163892	2.94
22.597	163490	2.93
22.600	162398	2.92
22.603	160465	2.88
22.607	159712	2.87
22.610	158832	2.85
22.613	157999	2.84
22.617	156690	2.81
22.620	156178	2.80
22.623	156497	2.81
22.627	157588	2.83
22.630	156704	2.81
22.633	155187	2.79
22.637	154700	2.78
22.640	156158	2.80
22.643	155889	2.80
22.647	154332	2.77
22.650	154232	2.77
22.653	155560	2.79
22.657	156193	2.80
22.660	156545	2.81
22.663	156621	2.81
22.667	157063	2.82
22.670	156467	2.81
22.673	155948	2.80
22.677	156549	2.81
22.680	157387	2.83
22.683	156646	2.81
22.687	156322	2.81
22.690	155960	2.80
22.693	156561	2.81
22.697	156756	2.81
22.700	156410	2.81
22.703	156399	2.81
22.707	156561	2.81
22.710	156513	2.81
22.713	156743	2.81
22.717	157670	2.83
22.720	158811	2.85
22.723	159373	2.86
22.727	159394	2.86
22.730	159645	2.87
22.733	159843	2.87
22.737	160020	2.87
22.740	160754	2.89
22.743	160094	2.87
22.747	160003	2.87
22.750	160945	2.89
22.753	160640	2.88
22.757	160253	2.88
22.760	159393	2.86
22.763	158248	2.84
22.767	159639	2.87
22.770	160426	2.88
22.773	160196	2.88
22.777	159956	2.87
22.780	159926	2.87
22.783	159937	2.87
22.787	160020	2.87
22.790	159468	2.86
22.793	159795	2.87
22.797	160104	2.87
22.800	159929	2.87
22.803	160495	2.88
22.807	159915	2.87
22.810	159608	2.87
22.813	159783	2.87
22.817	159953	2.87
22.820	161190	2.89
22.823	161838	2.91
22.827	160100	2.87
22.830	160378	2.88
22.833	161231	2.89
22.837	160877	2.89
22.840	161521	2.90
22.843	163870	2.94
22.847	164129	2.95
22.850	163652	2.94
22.853	162929	2.92
22.857	162116	2.91
22.860	163493	2.93
22.863	163855	2.94
22.867	164108	2.95
22.870	165924	2.98
22.873	166304	2.99
22.877	166336	2.99
22.880	166493	2.99
22.883	166755	2.99
22.887	166797	2.99
22.890	168155	3.02
22.893	168421	3.02
22.897	166803	2.99
22.900	166123	2.98
22.903	166314	2.99
22.907	165462	2.97
22.910	165213	2.97
22.913	165735	2.98
22.917	166624	2.99
22.920	168172	3.02
22.923	167943	3.01
22.927	167043	3.00
22.930	165924	2.98
22.933	165223	2.97
22.937	165232	2.97
22.940	166137	2.98
22.943	168759	3.03
22.947	168869	3.03
22.950	166781	2.99
22.953	166597	2.99
22.957	166930	3.00
22.960	166629	2.99
22.963	166304	2.99
22.967	166471	2.99
22.970	166776	2.99
22.973	167029	3.00
22.977	167029	3.00
22.980	166608	2.99
22.983	166786	2.99
22.987	168053	3.02
22.990	169171	3.04
22.993	169432	3.04
22.997	170351	3.06
23.000	171658	3.08
23.003	170804	3.07
23.007	167713	3.01
23.010	167569	3.01
23.013	169039	3.03
23.017	170116	3.05
23.020	171167	3.07
23.023	170283	3.06
23.027	168608	3.03
23.030	168011	3.02
23.033	168020	3.02
23.037	169517	3.04
23.040	171514	3.08
23.043	171367	3.08
23.047	170733	3.06
23.050	171193	3.07
23.053	172180	3.09
23.057	172438	3.10
23.060	172057	3.09
23.063	171046	3.07
23.067	170172	3.05
23.070	171012	3.07
23.073	172649	3.10
23.077	173209	3.11
23.080	172852	3.10
23.083	172401	3.09
23.087	172351	3.09
23.090	171960	3.09
23.093	171741	3.08
23.097	172619	3.10
23.100	172825	3.10
23.103	173108	3.11
23.107	174318	3.13
23.110	174649	3.14
23.113	173463	3.11
23.117	172967	3.10
23.120	172881	3.10
23.123	172664	3.10
23.127	173164	3.11
23.130	172899	3.10
23.133	172696	3.10
23.137	173352	3.11
23.140	172165	3.09
23.143	171833	3.08
23.147	173040	3.11
23.150	173328	3.11
23.153	173116	3.11
23.157	173376	3.11
23.160	176012	3.16
23.163	177144	3.18
23.167	176768	3.17
23.170	175801	3.16
23.173	175867	3.16
23.177	175599	3.15
23.180	176014	3.16
23.183	177080	3.18
23.187	176977	3.18
23.190	176445	3.17
23.193	176143	3.16
23.197	177118	3.18
23.200	178432	3.20
23.203	178567	3.21
23.207	178563	3.21
23.210	176855	3.17
23.213	177165	3.18
23.217	178405	3.20
23.220	178822	3.21
23.223	179921	3.23
23.227	180251	3.24
23.230	179907	3.23
23.233	179525	3.22
23.237	180404	3.24
23.240	180179	3.23
23.243	178589	3.21
23.247	178639	3.21
23.250	178615	3.21
23.253	178557	3.21
23.257	179071	3.21
23.260	178364	3.20
23.263	176926	3.18
23.267	176323	3.17
23.270	177846	3.19
23.273	178169	3.20
23.277	178322	3.20
23.280	178474	3.20
23.283	178542	3.20
23.287	178597	3.21
23.290	179033	3.21
23.293	180038	3.23
23.297	180448	3.24
23.300	180159	3.23
23.303	180434	3.24
23.307	178608	3.21
23.310	177962	3.19
23.313	179015	3.21
23.317	180058	3.23
23.320	179068	3.21
23.323	178568	3.21
23.327	179460	3.22
23.330	180636	3.24
23.333	180561	3.24
23.337	180041	3.23
23.340	181192	3.25
23.343	182300	3.27
23.347	181795	3.26
23.350	182826	3.28
23.353	183884	3.30
23.357	182789	3.28
23.360	182213	3.27
23.363	182212	3.27
23.367	182634	3.28
23.370	182709	3.28
23.373	183046	3.29
23.377	182718	3.28
23.380	182366	3.27
23.383	182884	3.28
23.387	181723	3.26
23.390	180571	3.24
23.393	180076	3.23
23.397	181099	3.25
23.400	182478	3.28
23.403	182594	3.28
23.407	182396	3.27
23.410	182473	3.28
23.413	181614	3.26
23.417	181771	3.26
23.420	182324	3.27
23.423	182364	3.27
23.427	181552	3.26
23.430	181974	3.27
23.433	181898	3.27
23.437	181519	3.26
23.440	181040	3.25
23.443	180728	3.24
23.447	182197	3.27
23.450	183345	3.29
23.453	185027	3.32
23.457	187030	3.36
23.460	187231	3.36
23.463	186356	3.35
23.467	182625	3.28
23.470	182433	3.27
23.473	183181	3.29
23.477	183981	3.30
23.480	184021	3.30
23.483	183648	3.30
23.487	182763	3.28
23.490	183187	3.29
23.493	183727	3.30
23.497	183773	3.30
23.500	183566	3.30
23.503	182926	3.28
23.507	182761	3.28
23.510	182778	3.28
23.513	182532	3.28
23.517	182643	3.28
23.520	184595	3.31
23.523	185111	3.32
23.527	183406	3.29
23.530	182772	3.28
23.533	183704	3.30
23.537	183218	3.29
23.540	182547	3.28
23.543	181585	3.26
23.547	182078	3.27
23.550	181966	3.27
23.553	182416	3.27
23.557	182940	3.28
23.560	184619	3.31
23.563	185436	3.33
23.567	185223	3.32
23.570	185496	3.33
23.573	186811	3.35
23.577	187085	3.36
23.580	186365	3.35
23.583	185315	3.33
23.587	184291	3.31
23.590	184873	3.32
23.593	186483	3.35
23.597	186705	3.35
23.600	185312	3.33
23.603	183434	3.29
23.607	183817	3.30
23.610	185287	3.33
23.613	185144	3.32
23.617	185026	3.32
23.620	185260	3.33
23.623	185806	3.34
23.627	185373	3.33
23.630	184658	3.31
23.633	184597	3.31
23.637	184981	3.32
23.640	183540	3.29
23.643	183089	3.29
23.647	183609	3.30
23.650	184315	3.31
23.653	184341	3.31
23.657	183049	3.29
23.660	183496	3.29
23.663	184275	3.31
23.667	183904	3.30
23.670	183568	3.30
23.673	183831	3.30
23.677	185191	3.32
23.680	185810	3.34
23.683	185772	3.33
23.687	185754	3.33
23.690	186218	3.34
23.693	187363	3.36
23.697	187574	3.37
23.700	187711	3.37
23.703	187474	3.37
23.707	186561	3.35
23.710	186782	3.35
23.713	187974	3.37
23.717	188228	3.38
23.720	187418	3.36
23.723	187021	3.36
23.727	186874	3.35
23.730	187112	3.36
23.733	187402	3.36
23.737	186512	3.35
23.740	185265	3.33
23.743	184487	3.31
23.747	185234	3.33
23.750	186508	3.35
23.753	187083	3.36
23.757	186408	3.35
23.760	186658	3.35
23.763	186344	3.35
23.767	187159	3.36
23.770	187510	3.37
23.773	186462	3.35
23.777	184882	3.32
23.780	185934	3.34
23.783	187935	3.37
23.787	188031	3.38
23.790	187861	3.37
23.793	189566	3.40
23.797	189740	3.41
23.800	188565	3.38
23.803	188877	3.39
23.807	189751	3.41
23.810	190093	3.41
23.813	191661	3.44
23.817	193906	3.48
23.820	193950	3.48
23.823	193942	3.48
23.827	193918	3.48
23.830	193868	3.48
23.833	191403	3.44
23.837	190088	3.41
23.840	190073	3.41
23.843	190102	3.41
23.847	189018	3.39
23.850	186674	3.35
23.853	186638	3.35
23.857	188044	3.38
23.860	187326	3.36
23.863	186635	3.35
23.867	186812	3.35
23.870	187052	3.36
23.873	186407	3.35
23.877	186083	3.34
23.880	186735	3.35
23.883	188528	3.38
23.887	188891	3.39
23.890	188055	3.38
23.893	186829	3.35
23.897	187074	3.36
23.900	186983	3.36
23.903	186776	3.35
23.907	187360	3.36
23.910	188401	3.38
23.913	188468	3.38
23.917	188599	3.39
23.920	188444	3.38
23.923	187331	3.36
23.927	186811	3.35
23.930	188099	3.38
23.933	188514	3.38
23.937	188247	3.38
23.940	188289	3.38
23.943	188080	3.38
23.947	187622	3.37
23.950	188240	3.38
23.953	187856	3.37
23.957	187272	3.36
23.960	187962	3.37
23.963	187775	3.37
23.967	187792	3.37
23.970	188062	3.38
23.973	188307	3.38
23.977	189767	3.41
23.980	190093	3.41
23.983	188577	3.39
23.987	188317	3.38
23.990	188937	3.39
23.993	189322	3.40
23.997	188452	3.38
24.000	187785	3.37
24.003	188184	3.38
24.007	189291	3.40
24.010	190173	3.41
24.013	190155	3.41
24.017	190205	3.41
24.020	190309	3.42
24.023	189276	3.40
24.027	189063	3.39
24.030	189849	3.41
24.033	189975	3.41
24.037	189508	3.40
24.040	188095	3.38
24.043	187433	3.36
24.047	188095	3.38
24.050	188795	3.39
24.053	189954	3.41
24.057	189803	3.41
24.060	189250	3.40
24.063	190095	3.41
24.067	190550	3.42
24.070	190291	3.42
24.073	189327	3.40
24.077	190142	3.41
24.080	191022	3.43
24.083	190779	3.42
24.087	189792	3.41
24.090	189333	3.40
24.093	189566	3.40
24.097	189529	3.40
24.100	188984	3.39
24.103	188218	3.38
24.107	186887	3.35
24.110	187789	3.37
24.113	189271	3.40
24.117	189097	3.39
24.120	188244	3.38
24.123	187253	3.36
24.127	187254	3.36
24.130	188808	3.39
24.133	189429	3.40
24.137	189416	3.40
24.140	189114	3.39
24.143	189158	3.40
24.147	189293	3.40
24.150	188286	3.38
24.153	188158	3.38
24.157	189239	3.40
24.160	189281	3.40
24.163	188258	3.38
24.167	188354	3.38
24.170	189413	3.40
24.173	190096	3.41
24.177	190338	3.42
24.180	191448	3.44
24.183	192818	3.46
24.187	193498	3.47
24.190	193422	3.47
24.193	192209	3.45
24.197	192931	3.46
24.200	193825	3.48
24.203	193637	3.48
24.207	193275	3.47
24.210	193595	3.48
24.213	193456	3.47
24.217	193274	3.47
24.220	192613	3.46
24.223	193525	3.47
24.227	195555	3.51
24.230	194720	3.50
24.233	194289	3.49
24.237	194951	3.50
24.240	194109	3.48
24.243	194769	3.50
24.247	195275	3.51
24.250	195359	3.51
24.253	195562	3.51
24.257	196498	3.53
24.260	196512	3.53
24.263	195316	3.51
24.267	194515	3.49
24.270	194843	3.50
24.273	195627	3.51
24.277	196211	3.52
24.280	195570	3.51
24.283	195757	3.51
24.287	195711	3.51
24.290	195385	3.51
24.293	195704	3.51
24.297	196188	3.52
24.300	195912	3.52
24.303	194706	3.50
24.307	194451	3.49
24.310	195210	3.50
24.313	195346	3.51
24.317	195572	3.51
24.320	195556	3.51
24.323	194353	3.49
24.327	193523	3.47
24.330	194731	3.50
24.333	195801	3.51
24.337	197422	3.54
24.340	198540	3.56
24.343	198758	3.57
24.347	198640	3.57
24.350	196941	3.54
24.353	196537	3.53
24.357	196468	3.53
24.360	196571	3.53
24.363	196567	3.53
24.367	196527	3.53
24.370	196198	3.52
24.373	194973	3.50
24.377	195662	3.51
24.380	197666	3.55
24.383	198164	3.56
24.387	198408	3.56
24.390	197954	3.55
24.393	199070	3.57
24.397	200737	3.60
24.400	200233	3.59
24.403	198797	3.57
24.407	199497	3.58
24.410	200538	3.60
24.413	201004	3.61
24.417	200599	3.60
24.420	200615	3.60
24.423	201127	3.61
24.427	201401	3.62
24.430	200648	3.60
24.433	200806	3.60
24.437	201458	3.62
24.440	201328	3.61
24.443	202461	3.63
24.447	202783	3.64
24.450	201827	3.62
24.453	201358	3.61
24.457	200650	3.60
24.460	200768	3.60
24.463	201469	3.62
24.467	201855	3.62
24.470	201310	3.61
24.473	201932	3.62
24.477	202873	3.64
24.480	202323	3.63
24.483	201354	3.61
24.487	200692	3.60
24.490	201150	3.61
24.493	201993	3.63
24.497	202721	3.64
24.500	201996	3.63
24.503	201292	3.61
24.507	201090	3.61
24.510	202131	3.63
24.513	204776	3.68
24.517	205246	3.68
24.520	204152	3.66
24.523	202368	3.63
24.527	200864	3.61
24.530	200334	3.60
24.533	200473	3.60
24.537	200390	3.60
24.540	200100	3.59
24.543	199842	3.59
24.547	198655	3.57
24.550	198159	3.56
24.553	199724	3.59
24.557	199971	3.59
24.560	199708	3.58
24.563	199780	3.59
24.567	200228	3.59
24.570	200167	3.59
24.573	199819	3.59
24.577	199931	3.59
24.580	200111	3.59
24.583	200339	3.60
24.587	200093	3.59
24.590	200362	3.60
24.593	200356	3.60
24.597	199672	3.58
24.600	199381	3.58
24.603	199520	3.58
24.607	200423	3.60
24.610	202252	3.63
24.613	202754	3.64
24.617	202722	3.64
24.620	201608	3.62
24.623	202090	3.63
24.627	201684	3.62
24.630	200165	3.59
24.633	200350	3.60
24.637	202653	3.64
24.640	205806	3.69
24.643	204923	3.68
24.647	202965	3.64
24.650	202302	3.63
24.653	201117	3.61
24.657	200868	3.61
24.660	201547	3.62
24.663	200534	3.60
24.667	199284	3.58
24.670	199932	3.59
24.673	200563	3.60
24.677	200180	3.59
24.680	199407	3.58
24.683	199307	3.58
24.687	200230	3.59
24.690	201510	3.62
24.693	201398	3.62
24.697	201038	3.61
24.700	200024	3.59
24.703	199131	3.57
24.707	199743	3.59
24.710	201038	3.61
24.713	201325	3.61
24.717	200348	3.60
24.720	200586	3.60
24.723	201589	3.62
24.727	201100	3.61
24.730	200765	3.60
24.733	200729	3.60
24.737	200935	3.61
24.740	200098	3.59
24.743	200846	3.61
24.747	201924	3.62
24.750	201837	3.62
24.753	201664	3.62
24.757	200960	3.61
24.760	200715	3.60
24.763	202108	3.63
24.767	201733	3.62
24.770	200911	3.61
24.773	201202	3.61
24.777	201257	3.61
24.780	201203	3.61
24.783	200876	3.61
24.787	201057	3.61
24.790	201271	3.61
24.793	201593	3.62
24.797	201753	3.62
24.800	201722	3.62
24.803	200863	3.61
24.807	200874	3.61
24.810	201099	3.61
24.813	201128	3.61
24.817	201400	3.62
24.820	202669	3.64
24.823	202971	3.64
24.827	202185	3.63
24.830	201059	3.61
24.833	201059	3.61
24.837	201782	3.62
24.840	202388	3.63
24.843	202491	3.63
24.847	202396	3.63
24.850	201482	3.62
24.853	200970	3.61
24.857	201058	3.61
24.860	200662	3.60
24.863	200349	3.60
24.867	200907	3.61
24.870	201226	3.61
24.873	202026	3.63
24.877	202553	3.64
24.880	202609	3.64
24.883	202742	3.64
24.887	202966	3.64
24.890	201186	3.61
24.893	199402	3.58
24.897	201088	3.61
24.900	201715	3.62
24.903	201120	3.61
24.907	201291	3.61
24.910	201110	3.61
24.913	201283	3.61
24.917	202378	3.63
24.920	203545	3.65
24.923	204565	3.67
24.927	205033	3.68
24.930	203893	3.66
24.933	203574	3.65
24.937	203663	3.66
24.940	202769	3.64
24.943	201342	3.61
24.947	201496	3.62
24.950	202614	3.64
24.953	202396	3.63
24.957	201881	3.62
24.960	201813	3.62
24.963	201824	3.62
24.967	201830	3.62
24.970	201431	3.62
24.973	200782	3.60
24.977	201016	3.61
24.980	203376	3.65
24.983	203609	3.65
24.987	203273	3.65
24.990	203721	3.66
24.993	204421	3.67
24.997	203784	3.66
25.000	204072	3.66
25.003	204575	3.67
25.007	203832	3.66
25.010	203060	3.65
25.013	203162	3.65
25.017	203732	3.66
25.020	203529	3.65
25.023	202187	3.63
25.027	202538	3.64
25.030	203685	3.66
25.033	203760	3.66
25.037	204106	3.66
25.040	204011	3.66
25.043	203802	3.66
25.047	203820	3.66
25.050	203432	3.65
25.053	203485	3.65
25.057	203449	3.65
25.060	204133	3.66
25.063	203870	3.66
25.067	203333	3.65
25.070	204484	3.67
25.073	205735	3.69
25.077	205662	3.69
25.080	205563	3.69
25.083	205265	3.68
25.087	205403	3.69
25.090	205889	3.70
25.093	207169	3.72
25.097	207405	3.72
25.100	206971	3.72
25.103	205685	3.69
25.107	205865	3.70
25.110	207151	3.72
25.113	206910	3.71
25.117	207374	3.72
25.120	206282	3.70
25.123	205490	3.69
25.127	205868	3.70
25.130	207135	3.72
25.133	207517	3.73
25.137	207412	3.72
25.140	206899	3.71
25.143	207238	3.72
25.147	207887	3.73
25.150	208576	3.74
25.153	208765	3.75
25.157	208959	3.75
25.160	208870	3.75
25.163	209495	3.76
25.167	209821	3.77
25.170	209025	3.75
25.173	208310	3.74
25.177	208386	3.74
25.180	208611	3.74
25.183	208931	3.75
25.187	208927	3.75
25.190	208879	3.75
25.193	208317	3.74
25.197	207494	3.72
25.200	208693	3.75
25.203	209898	3.77
25.207	210150	3.77
25.210	208763	3.75
25.213	207175	3.72
25.217	207384	3.72
25.220	207281	3.72
25.223	207854	3.73
25.227	208389	3.74
25.230	208079	3.74
25.233	208024	3.73
25.237	209097	3.75
25.240	209355	3.76
25.243	209363	3.76
25.247	209374	3.76
25.250	209290	3.76
25.253	209124	3.75
25.257	209801	3.77
25.260	210898	3.79
25.263	211018	3.79
25.267	209884	3.77
25.270	209726	3.76
25.273	209708	3.76
25.277	210071	3.77
25.280	210236	3.77
25.283	211470	3.80
25.287	213762	3.84
25.290	213740	3.84
25.293	213952	3.84
25.297	215667	3.87
25.300	215849	3.87
25.303	215986	3.88
25.307	216105	3.88
25.310	217827	3.91
25.313	218684	3.93
25.317	218460	3.92
25.320	219122	3.93
25.323	220362	3.96
25.327	219330	3.94
25.330	218486	3.92
25.333	218122	3.92
25.337	217802	3.91
25.340	218125	3.92
25.343	218100	3.92
25.347	217896	3.91
25.350	219514	3.94
25.353	220903	3.97
25.357	219683	3.94
25.360	219165	3.93
25.363	219407	3.94
25.367	218152	3.92
25.370	217821	3.91
25.373	218275	3.92
25.377	218389	3.92
25.380	218420	3.92
25.383	218451	3.92
25.387	217556	3.91
25.390	217338	3.90
25.393	217449	3.90
25.397	216855	3.89
25.400	217675	3.91
25.403	218904	3.93
25.407	219423	3.94
25.410	217802	3.91
25.413	217383	3.90
25.417	217319	3.90
25.420	218418	3.92
25.423	220009	3.95
25.427	220061	3.95
25.430	219804	3.95
25.433	219750	3.94
25.437	219823	3.95
25.440	220657	3.96
25.443	221240	3.97
25.447	220394	3.96
25.450	220803	3.96
25.453	223394	4.01
25.457	224321	4.03
25.460	224695	4.03
25.463	224585	4.03
25.467	223677	4.02
25.470	223489	4.01
25.473	224263	4.03
25.477	224819	4.04
25.480	224621	4.03
25.483	224426	4.03
25.487	224080	4.02
25.490	224512	4.03
25.493	227213	4.08
25.497	227434	4.08
25.500	227137	4.08
25.503	227509	4.08
25.507	227732	4.09
25.510	227778	4.09
25.513	228454	4.10
25.517	229036	4.11
25.520	230364	4.14
25.523	231127	4.15
25.527	233295	4.19
25.530	233812	4.20
25.533	231525	4.16
25.537	231048	4.15
25.540	232009	4.16
25.543	234904	4.22
25.547	236445	4.24
25.550	236098	4.24
25.553	235838	4.23
25.557	236629	4.25
25.560	237032	4.25
25.563	237757	4.27
25.567	241267	4.33
25.570	242670	4.36
25.573	242287	4.35
25.577	241271	4.33
25.580	241275	4.33
25.583	241443	4.33
25.587	241743	4.34
25.590	241953	4.34
25.593	241696	4.34
25.597	241471	4.33
25.600	241998	4.34
25.603	241705	4.34
25.607	241195	4.33
25.610	241697	4.34
25.613	243141	4.36
25.617	242444	4.35
25.620	242144	4.35
25.623	244613	4.39
25.627	246741	4.43
25.630	245033	4.40
25.633	244229	4.38
25.637	244836	4.39
25.640	244773	4.39
25.643	245135	4.40
25.647	244875	4.40
25.650	244778	4.39
25.653	245183	4.40
25.657	244104	4.38
25.660	243050	4.36
25.663	244733	4.39
25.667	246355	4.42
25.670	247029	4.43
25.673	247036	4.43
25.677	246763	4.43
25.680	247296	4.44
25.683	248948	4.47
25.687	249075	4.47
25.690	247849	4.45
25.693	247109	4.44
25.697	247615	4.44
25.700	248352	4.46
25.703	248181	4.46
25.707	248321	4.46
25.710	248858	4.47
25.713	248915	4.47
25.717	248047	4.45
25.720	247606	4.44
25.723	246927	4.43
25.727	246485	4.42
25.730	246553	4.43
25.733	246608	4.43
25.737	246680	4.43
25.740	246690	4.43
25.743	247122	4.44
25.747	246913	4.43
25.750	245246	4.40
25.753	244665	4.39
25.757	245001	4.40
25.760	246528	4.43
25.763	246467	4.42
25.767	245257	4.40
25.770	245066	4.40
25.773	246284	4.42
25.777	246746	4.43
25.780	245724	4.41
25.783	244942	4.40
25.787	246114	4.42
25.790	246215	4.42
25.793	244752	4.39
25.797	242857	4.36
25.800	244902	4.40
25.803	245706	4.41
25.807	244801	4.39
25.810	242858	4.36
25.813	242706	4.36
25.817	242518	4.35
25.820	241849	4.34
25.823	240587	4.32
25.827	240280	4.31
25.830	241087	4.33
25.833	242737	4.36
25.837	241371	4.33
25.840	239631	4.30
25.843	238674	4.28
25.847	238508	4.28
25.850	238725	4.29
25.853	239814	4.30
25.857	240725	4.32
25.860	240316	4.31
25.863	239853	4.31
25.867	239066	4.29
25.870	239380	4.30
25.873	240536	4.32
25.877	240277	4.31
25.880	238791	4.29
25.883	238358	4.28
25.887	238151	4.27
25.890	238201	4.28
25.893	238233	4.28
25.897	237449	4.26
25.900	236653	4.25
25.903	236535	4.25
25.907	237082	4.26
25.910	236773	4.25
25.913	236469	4.24
25.917	234864	4.22
25.920	233880	4.20
25.923	233658	4.19
25.927	233578	4.19
25.930	233460	4.19
25.933	234588	4.21
25.937	235608	4.23
25.940	234906	4.22
25.943	232095	4.17
25.947	231368	4.15
25.950	231471	4.16
25.953	229864	4.13
25.957	229241	4.12
25.960	229892	4.13
25.963	231041	4.15
25.967	231141	4.15
25.970	231155	4.15
25.973	229735	4.12
25.977	227684	4.09
25.980	227777	4.09
25.983	229145	4.11
25.987	229304	4.12
25.990	228868	4.11
25.993	229686	4.12
25.997	231127	4.15
26.000	230919	4.15
26.003	230252	4.13
26.007	229133	4.11
26.010	228709	4.11
26.013	228109	4.09
26.017	226289	4.06
26.020	228000	4.09
26.023	229309	4.12
26.027	229070	4.11
26.030	228417	4.10
26.033	228343	4.10
26.037	227968	4.09
26.040	228673	4.10
26.043	229450	4.12
26.047	229086	4.11
26.050	229597	4.12
26.053	229580	4.12
26.057	227834	4.09
26.060	226476	4.07
26.063	227796	4.09
26.067	228510	4.10
26.070	228740	4.11
26.073	228966	4.11
26.077	229146	4.11
26.080	229093	4.11
26.083	229097	4.11
26.087	228972	4.11
26.090	228999	4.11
26.093	229037	4.11
26.097	228477	4.10
26.100	227873	4.09
26.103	226905	4.07
26.107	226685	4.07
26.110	226658	4.07
26.113	226470	4.07
26.117	226827	4.07
26.120	226709	4.07
26.123	225285	4.04
26.127	224507	4.03
26.130	223216	4.01
26.133	222960	4.00
26.137	224500	4.03
26.140	225678	4.05
26.143	226813	4.07
26.147	227015	4.08
26.150	228014	4.09
26.153	227562	4.08
26.157	226776	4.07
26.160	226689	4.07
26.163	224378	4.03
26.167	224230	4.03
26.170	224387	4.03
26.173	224420	4.03
26.177	225730	4.05
26.180	226607	4.07
26.183	226128	4.06
26.187	227140	4.08
26.190	227688	4.09
26.193	227421	4.08
26.197	225783	4.05
26.200	224547	4.03
26.203	225743	4.05
26.207	227710	4.09
26.210	227228	4.08
26.213	224724	4.03
26.217	224239	4.03
26.220	224629	4.03
26.223	224019	4.02
26.227	223491	4.01
26.230	223565	4.01
26.233	224322	4.03
26.237	223115	4.01
26.240	221910	3.98
26.243	223139	4.01
26.247	225298	4.04
26.250	225145	4.04
26.253	224821	4.04
26.257	224145	4.02
26.260	224706	4.03
26.263	226506	4.07
26.267	226923	4.07
26.270	227333	4.08
26.273	227964	4.09
26.277	227970	4.09
26.280	227548	4.08
26.283	227317	4.08
26.287	226639	4.07
26.290	226645	4.07
26.293	228077	4.09
26.297	227206	4.08
26.300	224911	4.04
26.303	225397	4.05
26.307	226873	4.07
26.310	227537	4.08
26.313	227796	4.09
26.317	227246	4.08
26.320	226356	4.06
26.323	226171	4.06
26.327	227007	4.07
26.330	226934	4.07
26.333	226619	4.07
26.337	225225	4.04
26.340	224584	4.03
26.343	224756	4.03
26.347	226297	4.06
26.350	226938	4.07
26.353	226783	4.07
26.357	225607	4.05
26.360	224667	4.03
26.363	224693	4.03
26.367	225298	4.04
26.370	225419	4.05
26.373	226435	4.06
26.377	227579	4.09
26.380	227909	4.09
26.383	227429	4.08
26.387	225755	4.05
26.390	225695	4.05
26.393	224825	4.04
26.397	224759	4.03
26.400	225482	4.05
26.403	225208	4.04
26.407	223940	4.02
26.410	224259	4.03
26.413	224804	4.04
26.417	224742	4.03
26.420	224948	4.04
26.423	224876	4.04
26.427	225427	4.05
26.430	225689	4.05
26.433	225696	4.05
26.437	226689	4.07
26.440	227655	4.09
26.443	227337	4.08
26.447	227278	4.08
26.450	225841	4.05
26.453	224893	4.04
26.457	224027	4.02
26.460	223490	4.01
26.463	224613	4.03
26.467	225049	4.04
26.470	224861	4.04
26.473	224934	4.04
26.477	223232	4.01
26.480	222594	4.00
26.483	222065	3.99
26.487	221851	3.98
26.490	222753	4.00
26.493	223607	4.01
26.497	223147	4.01
26.500	221852	3.98
26.503	221401	3.97
26.507	222523	3.99
26.510	222899	4.00
26.513	222671	4.00
26.517	222698	4.00
26.520	223138	4.01
26.523	222394	3.99
26.527	222611	4.00
26.530	223346	4.01
26.533	222711	4.00
26.537	222215	3.99
26.540	222985	4.00
26.543	222651	4.00
26.547	220610	3.96
26.550	221076	3.97
26.553	222204	3.99
26.557	222017	3.99
26.560	222024	3.99
26.563	222715	4.00
26.567	223037	4.00
26.570	222988	4.00
26.573	221927	3.98
26.577	221439	3.97
26.580	221651	3.98
26.583	222247	3.99
26.587	222758	4.00
26.590	222177	3.99
26.593	222218	3.99
26.597	222584	4.00
26.600	222327	3.99
26.603	222474	3.99
26.607	222168	3.99
26.610	222114	3.99
26.613	222544	3.99
26.617	222112	3.99
26.620	221727	3.98
26.623	221784	3.98
26.627	222117	3.99
26.630	222011	3.99
26.633	221655	3.98
26.637	221828	3.98
26.640	221651	3.98
26.643	219990	3.95
26.647	220489	3.96
26.650	221796	3.98
26.653	219968	3.95
26.657	218608	3.92
26.660	218096	3.91
26.663	217468	3.90
26.667	217730	3.91
26.670	219563	3.94
26.673	219270	3.94
26.677	218622	3.92
26.680	217977	3.91
26.683	217912	3.91
26.687	218814	3.93
26.690	219697	3.94
26.693	219901	3.95
26.697	220865	3.96
26.700	221156	3.97
26.703	220391	3.96
26.707	220532	3.96
26.710	221588	3.98
26.713	222193	3.99
26.717	221402	3.97
26.720	220563	3.96
26.723	220357	3.96
26.727	219769	3.95
26.730	219666	3.94
26.733	218692	3.93
26.737	219241	3.94
26.740	220277	3.95
26.743	223318	4.01
26.747	223424	4.01
26.750	221258	3.97
26.753	220968	3.97
26.757	220392	3.96
26.760	220260	3.95
26.763	220229	3.95
26.767	222526	3.99
26.770	223506	4.01
26.773	223628	4.01
26.777	223437	4.01
26.780	223457	4.01
26.783	222846	4.00
26.787	223387	4.01
26.790	222709	4.00
26.793	221543	3.98
26.797	221284	3.97
26.800	221966	3.98
26.803	222453	3.99
26.807	222346	3.99
26.810	223312	4.01
26.813	223353	4.01
26.817	223621	4.01
26.820	223582	4.01
26.823	221351	3.97
26.827	220776	3.96
26.830	220975	3.97
26.833	221263	3.97
26.837	221543	3.98
26.840	221567	3.98
26.843	221682	3.98
26.847	221567	3.98
26.850	221228	3.97
26.853	221117	3.97
26.857	221702	3.98
26.860	221179	3.97
26.863	220875	3.96
26.867	221218	3.97
26.870	220898	3.97
26.873	220690	3.96
26.877	220351	3.96
26.880	218411	3.92
26.883	218183	3.92
26.887	218436	3.92
26.890	217953	3.91
26.893	216733	3.89
26.897	216351	3.88
26.900	218560	3.92
26.903	219490	3.94
26.907	220224	3.95
26.910	220778	3.96
26.913	220840	3.96
26.917	221029	3.97
26.920	221278	3.97
26.923	220045	3.95
26.927	220071	3.95
26.930	221017	3.97
26.933	220991	3.97
26.937	220344	3.96
26.940	220499	3.96
26.943	220154	3.95
26.947	220228	3.95
26.950	219845	3.95
26.953	220105	3.95
26.957	220712	3.96
26.960	220258	3.95
26.963	218160	3.92
26.967	217990	3.91
26.970	220255	3.95
26.973	220340	3.96
26.977	220142	3.95
26.980	220802	3.96
26.983	220470	3.96
26.987	219474	3.94
26.990	220640	3.96
26.993	221121	3.97
26.997	220894	3.97
27.000	220458	3.96
27.003	220923	3.97
27.007	221390	3.97
27.010	221197	3.97
27.013	221164	3.97
27.017	221318	3.97
27.020	221158	3.97
27.023	221799	3.98
27.027	221964	3.98
27.030	222260	3.99
27.033	221135	3.97
27.037	220823	3.96
27.040	220441	3.96
27.043	219939	3.95
27.047	221292	3.97
27.050	221088	3.97
27.053	221016	3.97
27.057	220385	3.96
27.060	220407	3.96
27.063	221451	3.98
27.067	221102	3.97
27.070	220710	3.96
27.073	220364	3.96
27.077	219690	3.94
27.080	219247	3.94
27.083	219248	3.94
27.087	218845	3.93
27.090	218556	3.92
27.093	219211	3.93
27.097	219797	3.95
27.100	218317	3.92
27.103	217562	3.91
27.107	219705	3.94
27.110	221132	3.97
27.113	220374	3.96
27.117	218694	3.93
27.120	218884	3.93
27.123	220039	3.95
27.127	219736	3.94
27.130	220255	3.95
27.133	220723	3.96
27.137	220215	3.95
27.140	220302	3.95
27.143	220357	3.96
27.147	220198	3.95
27.150	220035	3.95
27.153	220433	3.96
27.157	220903	3.97
27.160	220385	3.96
27.163	220511	3.96
27.167	221025	3.97
27.170	220989	3.97
27.173	220891	3.97
27.177	221358	3.97
27.180	223307	4.01
27.183	221253	3.97
27.187	221183	3.97
27.190	222419	3.99
27.193	222840	4.00
27.197	221722	3.98
27.200	222017	3.99
27.203	222561	4.00
27.207	223053	4.00
27.210	223872	4.02
27.213	224376	4.03
27.217	224545	4.03
27.220	223922	4.02
27.223	223357	4.01
27.227	223478	4.01
27.230	223393	4.01
27.233	223743	4.02
27.237	224031	4.02
27.240	223559	4.01
27.243	223553	4.01
27.247	223964	4.02
27.250	223984	4.02
27.253	224061	4.02
27.257	224687	4.03
27.260	224015	4.02
27.263	222995	4.00
27.267	223244	4.01
27.270	223636	4.01
27.273	223114	4.01
27.277	223017	4.00
27.280	223742	4.02
27.283	224084	4.02
27.287	223943	4.02
27.290	225065	4.04
27.293	225061	4.04
27.297	226330	4.06
27.300	226429	4.06
27.303	226491	4.07
27.307	226612	4.07
27.310	226473	4.07
27.313	226276	4.06
27.317	227765	4.09
27.320	228043	4.09
27.323	227018	4.08
27.327	226282	4.06
27.330	224411	4.03
27.333	223528	4.01
27.337	223644	4.01
27.340	225532	4.05
27.343	226744	4.07
27.347	227059	4.08
27.350	226609	4.07
27.353	225549	4.05
27.357	224719	4.03
27.360	224335	4.03
27.363	223590	4.01
27.367	223562	4.01
27.370	223721	4.02
27.373	224410	4.03
27.377	225148	4.04
27.380	225377	4.05
27.383	225919	4.06
27.387	226447	4.06
27.390	225778	4.05
27.393	226611	4.07
27.397	227607	4.09
27.400	227436	4.08
27.403	227713	4.09
27.407	227470	4.08
27.410	226072	4.06
27.413	225590	4.05
27.417	226202	4.06
27.420	226241	4.06
27.423	225732	4.05
27.427	225621	4.05
27.430	225895	4.05
27.433	225726	4.05
27.437	226129	4.06
27.440	225636	4.05
27.443	225586	4.05
27.447	226907	4.07
27.450	226690	4.07
27.453	225354	4.05
27.457	225342	4.05
27.460	227088	4.08
27.463	227616	4.09
27.467	227741	4.09
27.470	227954	4.09
27.473	227541	4.08
27.477	227908	4.09
27.480	228252	4.10
27.483	227614	4.09
27.487	227589	4.09
27.490	227274	4.08
27.493	227919	4.09
27.497	228643	4.10
27.500	228249	4.10
27.503	226577	4.07
27.507	225769	4.05
27.510	227803	4.09
27.513	229277	4.12
27.517	228548	4.10
27.520	228231	4.10
27.523	228856	4.11
27.527	228289	4.10
27.530	226500	4.07
27.533	226026	4.06
27.537	226192	4.06
27.540	227193	4.08
27.543	226018	4.06
27.547	225876	4.05
27.550	227519	4.08
27.553	228956	4.11
27.557	228876	4.11
27.560	228112	4.09
27.563	227117	4.08
27.567	227354	4.08
27.570	228094	4.09
27.573	227752	4.09
27.577	227169	4.08
27.580	227402	4.08
27.583	227633	4.09
27.587	229315	4.12
27.590	230080	4.13
27.593	229273	4.12
27.597	229255	4.12
27.600	229044	4.11
27.603	227262	4.08
27.607	226713	4.07
27.610	228334	4.10
27.613	230948	4.15
27.617	232256	4.17
27.620	231621	4.16
27.623	230364	4.14
27.627	231488	4.16
27.630	231336	4.15
27.633	229909	4.13
27.637	230401	4.14
27.640	230664	4.14
27.643	229556	4.12
27.647	228207	4.10
27.650	227768	4.09
27.653	229145	4.11
27.657	229836	4.13
27.660	230594	4.14
27.663	231831	4.16
27.667	231471	4.16
27.670	229430	4.12
27.673	228712	4.11
27.677	229582	4.12
27.680	229133	4.11
27.683	229570	4.12
27.687	230411	4.14
27.690	230312	4.13
27.693	230416	4.14
27.697	231210	4.15
27.700	231797	4.16
27.703	230967	4.15
27.707	229332	4.12
27.710	229158	4.11
27.713	230162	4.13
27.717	231390	4.15
27.720	232130	4.17
27.723	232004	4.16
27.727	230660	4.14
27.730	228889	4.11
27.733	229432	4.12
27.737	231083	4.15
27.740	231772	4.16
27.743	231151	4.15
27.747	230821	4.14
27.750	230791	4.14
27.753	230084	4.13
27.757	230307	4.13
27.760	230551	4.14
27.763	230547	4.14
27.767	230939	4.15
27.770	231147	4.15
27.773	231931	4.16
27.777	231462	4.15
27.780	231391	4.15
27.783	230818	4.14
27.787	231125	4.15
27.790	231137	4.15
27.793	231139	4.15
27.797	230905	4.14
27.800	231398	4.15
27.803	231410	4.15
27.807	230929	4.15
27.810	231494	4.16
27.813	232999	4.18
27.817	232991	4.18
27.820	232115	4.17
27.823	231442	4.15
27.827	231172	4.15
27.830	231728	4.16
27.833	232517	4.17
27.837	232145	4.17
27.840	231584	4.16
27.843	231967	4.16
27.847	234126	4.20
27.850	234952	4.22
27.853	235027	4.22
27.857	234577	4.21
27.860	234022	4.20
27.863	234522	4.21
27.867	234673	4.21
27.870	233334	4.19
27.873	232038	4.17
27.877	232302	4.17
27.880	232523	4.17
27.883	232703	4.18
27.887	234573	4.21
27.890	234675	4.21
27.893	232248	4.17
27.897	231966	4.16
27.900	233014	4.18
27.903	234043	4.20
27.907	233491	4.19
27.910	234775	4.21
27.913	235118	4.22
27.917	233002	4.18
27.920	232606	4.18
27.923	233801	4.20
27.927	232766	4.18
27.930	232206	4.17
27.933	232874	4.18
27.937	234251	4.20
27.940	234264	4.21
27.943	234763	4.21
27.947	234861	4.22
27.950	234874	4.22
27.953	234536	4.21
27.957	234565	4.21
27.960	234875	4.22
27.963	235152	4.22
27.967	235047	4.22
27.970	234870	4.22
27.973	234566	4.21
27.977	232848	4.18
27.980	231954	4.16
27.983	233857	4.20
27.987	234236	4.20
27.990	234478	4.21
27.993	234461	4.21
27.997	234268	4.21
28.000	234150	4.20
28.003	234539	4.21
28.007	233875	4.20
28.010	232062	4.17
28.013	232186	4.17
28.017	234471	4.21
28.020	235200	4.22
28.023	235399	4.23
28.027	235129	4.22
28.030	234872	4.22
28.033	234506	4.21
28.037	234339	4.21
28.040	234684	4.21
28.043	236264	4.24
28.047	236795	4.25
28.050	236430	4.24
28.053	235741	4.23
28.057	234950	4.22
28.060	234820	4.22
28.063	235539	4.23
28.067	236632	4.25
28.070	237009	4.25
28.073	235471	4.23
28.077	234183	4.20
28.080	234159	4.20
28.083	235402	4.23
28.087	236788	4.25
28.090	236681	4.25
28.093	234899	4.22
28.097	235266	4.22
28.100	235673	4.23
28.103	235408	4.23
28.107	235530	4.23
28.110	235896	4.23
28.113	236606	4.25
28.117	236663	4.25
28.120	236721	4.25
28.123	237636	4.27
28.127	236516	4.25
28.130	235244	4.22
28.133	233991	4.20
28.137	233888	4.20
28.140	233831	4.20
28.143	233516	4.19
28.147	233744	4.20
28.150	234058	4.20
28.153	234049	4.20
28.157	235133	4.22
28.160	235697	4.23
28.163	235340	4.22
28.167	234245	4.20
28.170	234199	4.20
28.173	234884	4.22
28.177	234708	4.21
28.180	235963	4.24
28.183	236143	4.24
28.187	235573	4.23
28.190	235158	4.22
28.193	233945	4.20
28.197	232880	4.18
28.200	234136	4.20
28.203	235780	4.23
28.207	235550	4.23
28.210	234376	4.21
28.213	234650	4.21
28.217	236054	4.24
28.220	236779	4.25
28.223	235862	4.23
28.227	235455	4.23
28.230	235357	4.22
28.233	235708	4.23
28.237	236488	4.25
28.240	237887	4.27
28.243	237577	4.26
28.247	237859	4.27
28.250	237654	4.27
28.253	236316	4.24
28.257	236339	4.24
28.260	237316	4.26
28.263	237579	4.26
28.267	238478	4.28
28.270	238638	4.28
28.273	238652	4.28
28.277	240086	4.31
28.280	240774	4.32
28.283	239633	4.30
28.287	237140	4.26
28.290	237506	4.26
28.293	238868	4.29
28.297	238716	4.29
28.300	239135	4.29
28.303	239181	4.29
28.307	238463	4.28
28.310	238349	4.28
28.313	238873	4.29
28.317	239606	4.30
28.320	238570	4.28
28.323	237819	4.27
28.327	238453	4.28
28.330	240187	4.31
28.333	240793	4.32
28.337	239953	4.31
28.340	239682	4.30
28.343	240632	4.32
28.347	240401	4.32
28.350	240358	4.31
28.353	240259	4.31
28.357	240697	4.32
28.360	241651	4.34
28.363	241497	4.34
28.367	241401	4.33
28.370	240858	4.32
28.373	238955	4.29
28.377	239226	4.29
28.380	239164	4.29
28.383	238633	4.28
28.387	239082	4.29
28.390	239785	4.30
28.393	240757	4.32
28.397	241115	4.33
28.400	241955	4.34
28.403	242063	4.35
28.407	241009	4.33
28.410	239187	4.29
28.413	239407	4.30
28.417	240553	4.32
28.420	241047	4.33
28.423	240999	4.33
28.427	241599	4.34
28.430	242151	4.35
28.433	241821	4.34
28.437	241062	4.33
28.440	240454	4.32
28.443	241050	4.33
28.447	242577	4.35
28.450	243599	4.37
28.453	243476	4.37
28.457	244069	4.38
28.460	243468	4.37
28.463	242413	4.35
28.467	241843	4.34
28.470	242199	4.35
28.473	242592	4.35
28.477	242945	4.36
28.480	242998	4.36
28.483	242446	4.35
28.487	242648	4.36
28.490	242688	4.36
28.493	242484	4.35
28.497	242745	4.36
28.500	243317	4.37
28.503	242759	4.36
28.507	242365	4.35
28.510	241485	4.33
28.513	241223	4.33
28.517	240810	4.32
28.520	240783	4.32
28.523	241188	4.33
28.527	241122	4.33
28.530	243303	4.37
28.533	243981	4.38
28.537	242421	4.35
28.540	242083	4.35
28.543	243691	4.37
28.547	244082	4.38
28.550	242961	4.36
28.553	242723	4.36
28.557	243137	4.36
28.560	243311	4.37
28.563	242009	4.34
28.567	242674	4.36
28.570	243813	4.38
28.573	243791	4.38
28.577	243547	4.37
28.580	242951	4.36
28.583	243003	4.36
28.587	244010	4.38
28.590	244858	4.40
28.593	245564	4.41
28.597	244768	4.39
28.600	242960	4.36
28.603	242871	4.36
28.607	243904	4.38
28.610	245802	4.41
28.613	247909	4.45
28.617	248104	4.45
28.620	248358	4.46
28.623	249019	4.47
28.627	249594	4.48
28.630	249099	4.47
28.633	249000	4.47
28.637	248518	4.46
28.640	248515	4.46
28.643	248341	4.46
28.647	247924	4.45
28.650	247840	4.45
28.653	248305	4.46
28.657	248659	4.46
28.660	248224	4.46
28.663	249240	4.47
28.667	250165	4.49
28.670	248974	4.47
28.673	248842	4.47
28.677	249107	4.47
28.680	250057	4.49
28.683	250631	4.50
28.687	251874	4.52
28.690	252845	4.54
28.693	252286	4.53
28.697	250362	4.49
28.700	249510	4.48
28.703	250403	4.49
28.707	250580	4.50
28.710	248797	4.47
28.713	248775	4.47
28.717	250275	4.49
28.720	250281	4.49
28.723	249563	4.48
28.727	250220	4.49
28.730	249295	4.48
28.733	250815	4.50
28.737	251536	4.52
28.740	251143	4.51
28.743	250430	4.50
28.747	251455	4.51
28.750	251705	4.52
28.753	251624	4.52
28.757	251357	4.51
28.760	251670	4.52
28.763	250195	4.49
28.767	248681	4.46
28.770	249088	4.47
28.773	249956	4.49
28.777	250379	4.49
28.780	252089	4.53
28.783	252930	4.54
28.787	252401	4.53
28.790	252234	4.53
28.793	250515	4.50
28.797	250109	4.49
28.800	252153	4.53
28.803	253617	4.55
28.807	253942	4.56
28.810	253860	4.56
28.813	253704	4.55
28.817	252939	4.54
28.820	251985	4.52
28.823	250286	4.49
28.827	250231	4.49
28.830	252917	4.54
28.833	254025	4.56
28.837	254474	4.57
28.840	254454	4.57
28.843	253761	4.56
28.847	254622	4.57
28.850	255473	4.59
28.853	253599	4.55
28.857	251503	4.51
28.860	252367	4.53
28.863	253590	4.55
28.867	253481	4.55
28.870	253217	4.55
28.873	252398	4.53
28.877	252299	4.53
28.880	254145	4.56
28.883	254857	4.57
28.887	254084	4.56
28.890	253051	4.54
28.893	251760	4.52
28.897	250662	4.50
28.900	251128	4.51
28.903	252435	4.53
28.907	252751	4.54
28.910	252424	4.53
28.913	253739	4.55
28.917	254513	4.57
28.920	254469	4.57
28.923	255301	4.58
28.927	254708	4.57
28.930	253513	4.55
28.933	254246	4.56
28.937	255071	4.58
28.940	254694	4.57
28.943	254600	4.57
28.947	254039	4.56
28.950	253648	4.55
28.953	253598	4.55
28.957	253326	4.55
28.960	253173	4.54
28.963	254002	4.56
28.967	253975	4.56
28.970	253671	4.55
28.973	253734	4.55
28.977	253718	4.55
28.980	253760	4.56
28.983	254488	4.57
28.987	253779	4.56
28.990	252797	4.54
28.993	253390	4.55
28.997	253533	4.55
29.000	253436	4.55
29.003	253891	4.56
29.007	253975	4.56
29.010	253978	4.56
29.013	254681	4.57
29.017	254493	4.57
29.020	254085	4.56
29.023	255561	4.59
29.027	255670	4.59
29.030	255054	4.58
29.033	254895	4.58
29.037	254977	4.58
29.040	255728	4.59
29.043	256072	4.60
29.047	255724	4.59
29.050	255592	4.59
29.053	254841	4.57
29.057	253727	4.55
29.060	253138	4.54
29.063	252726	4.54
29.067	254094	4.56
29.070	256731	4.61
29.073	256566	4.61
29.077	254591	4.57
29.080	253175	4.54
29.083	253375	4.55
29.087	255623	4.59
29.090	256641	4.61
29.093	256195	4.60
29.097	256267	4.60
29.100	255720	4.59
29.103	256065	4.60
29.107	257887	4.63
29.110	257700	4.63
29.113	256997	4.61
29.117	257787	4.63
29.120	257183	4.62
29.123	257046	4.61
29.127	257269	4.62
29.130	256451	4.60
29.133	255900	4.59
29.137	255858	4.59
29.140	256919	4.61
29.143	257043	4.61
29.147	257955	4.63
29.150	258358	4.64
29.153	256731	4.61
29.157	257018	4.61
29.160	257990	4.63
29.163	257780	4.63
29.167	257591	4.62
29.170	258871	4.65
29.173	260125	4.67
29.177	260334	4.67
29.180	259963	4.67
29.183	260037	4.67
29.187	259939	4.67
29.190	259514	4.66
29.193	259503	4.66
29.197	258743	4.64
29.200	259154	4.65
29.203	259803	4.66
29.207	259476	4.66
29.210	259329	4.66
29.213	260659	4.68
29.217	261790	4.70
29.220	262306	4.71
29.223	262970	4.72
29.227	262791	4.72
29.230	260960	4.68
29.233	260053	4.67
29.237	261182	4.69
29.240	262603	4.71
29.243	262774	4.72
29.247	262742	4.72
29.250	261645	4.70
29.253	260822	4.68
29.257	262103	4.70
29.260	262494	4.71
29.263	261192	4.69
29.267	261008	4.69
29.270	261111	4.69
29.273	261151	4.69
29.277	261661	4.70
29.280	262845	4.72
29.283	261683	4.70
29.287	260776	4.68
29.290	260723	4.68
29.293	260144	4.67
29.297	258791	4.65
29.300	258814	4.65
29.303	260991	4.68
29.307	261045	4.69
29.310	263119	4.72
29.313	263520	4.73
29.317	262039	4.70
29.320	261100	4.69
29.323	261352	4.69
29.327	262747	4.72
29.330	264424	4.75
29.333	263976	4.74
29.337	262034	4.70
29.340	260988	4.68
29.343	261108	4.69
29.347	261650	4.70
29.350	260923	4.68
29.353	261234	4.69
29.357	261428	4.69
29.360	263383	4.73
29.363	264071	4.74
29.367	263848	4.74
29.370	262811	4.72
29.373	262555	4.71
29.377	260577	4.68
29.380	260957	4.68
29.383	262141	4.71
29.387	263929	4.74
29.390	263777	4.73
29.393	263798	4.74
29.397	264184	4.74
29.400	266453	4.78
29.403	266450	4.78
29.407	265937	4.77
29.410	266332	4.78
29.413	266468	4.78
29.417	264330	4.74
29.420	264310	4.74
29.423	264231	4.74
29.427	264156	4.74
29.430	264424	4.75
29.433	264286	4.74
29.437	264307	4.74
29.440	263960	4.74
29.443	261718	4.70
29.447	260850	4.68
29.450	260048	4.67
29.453	258503	4.64
29.457	258199	4.63
29.460	259886	4.67
29.463	261440	4.69
29.467	260341	4.67
29.470	258947	4.65
29.473	259068	4.65
29.477	261054	4.69
29.480	261392	4.69
29.483	259572	4.66
29.487	259232	4.65
29.490	260059	4.67
29.493	258929	4.65
29.497	257664	4.63
29.500	257883	4.63
29.503	259323	4.66
29.507	260553	4.68
29.510	261755	4.70
29.513	261994	4.70
29.517	259669	4.66
29.520	258746	4.64
29.523	259951	4.67
29.527	259100	4.65
29.530	258186	4.63
29.533	257735	4.63
29.537	258378	4.64
29.540	259647	4.66
29.543	260376	4.67
29.547	259809	4.66
29.550	258415	4.64
29.553	257300	4.62
29.557	257737	4.63
29.560	259118	4.65
29.563	259640	4.66
29.567	260997	4.69
29.570	260741	4.68
29.573	260255	4.67
29.577	260974	4.68
29.580	260717	4.68
29.583	259814	4.66
29.587	257746	4.63
29.590	257668	4.63
29.593	258015	4.63
29.597	257666	4.63
29.600	258058	4.63
29.603	259001	4.65
29.607	258829	4.65
29.610	259211	4.65
29.613	260848	4.68
29.617	261115	4.69
29.620	261656	4.70
29.623	262368	4.71
29.627	261174	4.69
29.630	261353	4.69
29.633	261292	4.69
29.637	260883	4.68
29.640	261440	4.69
29.643	261588	4.70
29.647	261126	4.69
29.650	261303	4.69
29.653	262753	4.72
29.657	264386	4.75
29.660	264214	4.74
29.663	263290	4.73
29.667	262721	4.72
29.670	261194	4.69
29.673	261776	4.70
29.677	262844	4.72
29.680	260386	4.67
29.683	260433	4.67
29.687	261026	4.69
29.690	260706	4.68
29.693	260574	4.68
29.697	260106	4.67
29.700	262817	4.72
29.703	264437	4.75
29.707	263016	4.72
29.710	260303	4.67
29.713	259328	4.66
29.717	259558	4.66
29.720	261512	4.69
29.723	262852	4.72
29.727	262424	4.71
29.730	260069	4.67
29.733	259155	4.65
29.737	259596	4.66
29.740	262752	4.72
29.743	264231	4.74
29.747	262759	4.72
29.750	259967	4.67
29.753	259961	4.67
29.757	259419	4.66
29.760	259426	4.66
29.763	259155	4.65
29.767	258973	4.65
29.770	258737	4.64
29.773	258628	4.64
29.777	258177	4.63
29.780	258063	4.63
29.783	258640	4.64
29.787	259202	4.65
29.790	259761	4.66
29.793	260275	4.67
29.797	259372	4.66
29.800	259740	4.66
29.803	260233	4.67
29.807	259347	4.66
29.810	260315	4.67
29.813	262387	4.71
29.817	260265	4.67
29.820	258855	4.65
29.823	258274	4.64
29.827	258689	4.64
29.830	258810	4.65
29.833	259234	4.65
29.837	259377	4.66
29.840	258228	4.64
29.843	258140	4.63
29.847	258086	4.63
29.850	258449	4.64
29.853	259640	4.66
29.857	258638	4.64
29.860	258148	4.63
29.863	258150	4.63
29.867	258133	4.63
29.870	258485	4.64
29.873	258378	4.64
29.877	258304	4.64
29.880	258758	4.64
29.883	260595	4.68
29.887	260519	4.68
29.890	260741	4.68
29.893	261487	4.69
29.897	261357	4.69
29.900	261054	4.69
29.903	261418	4.69
29.907	261242	4.69
29.910	260255	4.67
29.913	260467	4.68
29.917	260433	4.67
29.920	261145	4.69
29.923	260926	4.68
29.927	260742	4.68
29.930	259750	4.66
29.933	258483	4.64
29.937	259076	4.65
29.940	259878	4.66
29.943	259490	4.66
29.947	259786	4.66
29.950	259723	4.66
29.953	259343	4.66
29.957	257816	4.63
29.960	256868	4.61
29.963	257525	4.62
29.967	257676	4.63
29.970	256752	4.61
29.973	255723	4.59
29.977	256991	4.61
29.980	257229	4.62
29.983	256654	4.61
29.987	255695	4.59
29.990	254400	4.57
29.993	253936	4.56
29.997	254587	4.57
30.000	255000	4.58
30.003	254469	4.57
30.007	254418	4.57
30.010	255040	4.58
30.013	256798	4.61
30.017	256932	4.61
30.020	256821	4.61
30.023	255319	4.58
30.027	253955	4.56
30.030	253398	4.55
30.033	254305	4.56
30.037	256638	4.61
30.040	257015	4.61
30.043	256171	4.60
30.047	255284	4.58
30.050	254364	4.57
30.053	253886	4.56
30.057	254427	4.57
30.060	255072	4.58
30.063	254722	4.57
30.067	253905	4.56
30.070	253895	4.56
30.073	254795	4.57
30.077	255129	4.58
30.080	255012	4.58
30.083	256223	4.60
30.087	256989	4.61
30.090	255618	4.59
30.093	253830	4.56
30.097	255282	4.58
30.100	255349	4.58
30.103	255183	4.58
30.107	255357	4.58
30.110	254960	4.58
30.113	255006	4.58
30.117	256007	4.60
30.120	255388	4.58
30.123	253839	4.56
30.127	253486	4.55
30.130	253906	4.56
30.133	254831	4.57
30.137	255064	4.58
30.140	253829	4.56
30.143	252744	4.54
30.147	253402	4.55
30.150	253652	4.55
30.153	253205	4.55
30.157	253366	4.55
30.160	255133	4.58
30.163	255102	4.58
30.167	253782	4.56
30.170	253257	4.55
30.173	253723	4.55
30.177	253429	4.55
30.180	252264	4.53
30.183	252284	4.53
30.187	253014	4.54
30.190	251673	4.52
30.193	252421	4.53
30.197	253990	4.56
30.200	253695	4.55
30.203	253210	4.55
30.207	253429	4.55
30.210	253655	4.55
30.213	253203	4.55
30.217	253034	4.54
30.220	253560	4.55
30.223	252364	4.53
30.227	249734	4.48
30.230	248950	4.47
30.233	249029	4.47
30.237	249328	4.48
30.240	250820	4.50
30.243	251616	4.52
30.247	251425	4.51
30.250	250490	4.50
30.253	251397	4.51
30.257	252877	4.54
30.260	251464	4.51
30.263	250681	4.50
30.267	249991	4.49
30.270	249843	4.48
30.273	250892	4.50
30.277	250440	4.50
30.280	249290	4.47
30.283	249244	4.47
30.287	251242	4.51
30.290	252626	4.53
30.293	252829	4.54
30.297	251928	4.52
30.300	249825	4.48
30.303	250008	4.49
30.307	249909	4.49
30.310	249800	4.48
30.313	249219	4.47
30.317	248912	4.47
30.320	249259	4.47
30.323	249001	4.47
30.327	248445	4.46
30.330	247905	4.45
30.333	246980	4.43
30.337	246655	4.43
30.340	247945	4.45
30.343	248315	4.46
30.347	247925	4.45
30.350	247610	4.44
30.353	248267	4.46
30.357	248966	4.47
30.360	248317	4.46
30.363	248161	4.45
30.367	248032	4.45
30.370	247951	4.45
30.373	247888	4.45
30.377	245744	4.41
30.380	242629	4.36
30.383	244385	4.39
30.387	247139	4.44
30.390	247580	4.44
30.393	247610	4.44
30.397	245996	4.42
30.400	246040	4.42
30.403	247192	4.44
30.407	246170	4.42
30.410	245701	4.41
30.413	245670	4.41
30.417	245818	4.41
30.420	245839	4.41
30.423	245704	4.41
30.427	245929	4.41
30.430	246128	4.42
30.433	245796	4.41
30.437	245599	4.41
30.440	245933	4.41
30.443	245492	4.41
30.447	243797	4.38
30.450	242508	4.35
30.453	242521	4.35
30.457	242695	4.36
30.460	243269	4.37
30.463	245398	4.41
30.467	245322	4.40
30.470	245146	4.40
30.473	245382	4.40
30.477	245374	4.40
30.480	245003	4.40
30.483	244815	4.39
30.487	243960	4.38
30.490	242794	4.36
30.493	243367	4.37
30.497	245270	4.40
30.500	246095	4.42
30.503	246629	4.43
30.507	246147	4.42
30.510	245333	4.40
30.513	246397	4.42
30.517	246272	4.42
30.520	244933	4.40
30.523	244212	4.38
30.527	243093	4.36
30.530	242773	4.36
30.533	243320	4.37
30.537	244254	4.38
30.540	244639	4.39
30.543	244454	4.39
30.547	244524	4.39
30.550	245165	4.40
30.553	244684	4.39
30.557	243587	4.37
30.560	244041	4.38
30.563	245126	4.40
30.567	245554	4.41
30.570	244982	4.40
30.573	245573	4.41
30.577	246409	4.42
30.580	246571	4.43
30.583	246597	4.43
30.587	246328	4.42
30.590	245730	4.41
30.593	245308	4.40
30.597	244460	4.39
30.600	244270	4.38
30.603	244915	4.40
30.607	244940	4.40
30.610	244324	4.39
30.613	244145	4.38
30.617	244814	4.39
30.620	243976	4.38
30.623	243898	4.38
30.627	243988	4.38
30.630	244039	4.38
30.633	244982	4.40
30.637	244823	4.39
30.640	241541	4.34
30.643	239854	4.31
30.647	240839	4.32
30.650	242547	4.35
30.653	243881	4.38
30.657	244437	4.39
30.660	243683	4.37
30.663	243140	4.36
30.667	242354	4.35
30.670	242104	4.35
30.673	242511	4.35
30.677	242995	4.36
30.680	242065	4.35
30.683	241967	4.34
30.687	242085	4.35
30.690	242126	4.35
30.693	241963	4.34
30.697	241798	4.34
30.700	240465	4.32
30.703	240778	4.32
30.707	240514	4.32
30.710	240610	4.32
30.713	240937	4.32
30.717	240865	4.32
30.720	240519	4.32
30.723	240865	4.32
30.727	241251	4.33
30.730	241215	4.33
30.733	240747	4.32
30.737	241016	4.33
30.740	241542	4.34
30.743	241716	4.34
30.747	241613	4.34
30.750	242245	4.35
30.753	242641	4.36
30.757	241592	4.34
30.760	241479	4.33
30.763	241973	4.34
30.767	241886	4.34
30.770	241425	4.33
30.773	241527	4.34
30.777	242018	4.34
30.780	242202	4.35
30.783	242143	4.35
30.787	241192	4.33
30.790	239647	4.30
30.793	239403	4.30
30.797	239720	4.30
30.800	240789	4.32
30.803	241272	4.33
30.807	240140	4.31
30.810	239985	4.31
30.813	239597	4.30
30.817	239943	4.31
30.820	240791	4.32
30.823	241203	4.33
30.827	241431	4.33
30.830	242010	4.34
30.833	241980	4.34
30.837	241399	4.33
30.840	242220	4.35
30.843	241754	4.34
30.847	239915	4.31
30.850	239911	4.31
30.853	240390	4.32
30.857	240034	4.31
30.860	240061	4.31
30.863	239757	4.30
30.867	239706	4.30
30.870	239684	4.30
30.873	239558	4.30
30.877	239947	4.31
30.880	241063	4.33
30.883	240131	4.31
30.887	239783	4.30
30.890	239737	4.30
30.893	239601	4.30
30.897	239956	4.31
30.900	240630	4.32
30.903	240014	4.31
30.907	239500	4.30
30.910	239540	4.30
30.913	239294	4.30
30.917	239406	4.30
30.920	239658	4.30
30.923	239963	4.31
30.927	239743	4.30
30.930	239526	4.30
30.933	239773	4.30
30.937	239925	4.31
30.940	239752	4.30
30.943	239817	4.30
30.947	240046	4.31
30.950	239736	4.30
30.953	239714	4.30
30.957	239728	4.30
30.960	239572	4.30
30.963	239661	4.30
30.967	239557	4.30
30.970	239946	4.31
30.973	239935	4.31
30.977	239416	4.30
30.980	239653	4.30
30.983	240685	4.32
30.987	239935	4.31
30.990	239413	4.30
30.993	239644	4.30
30.997	239981	4.31
31.000	239164	4.29
31.003	237755	4.27
31.007	237689	4.27
31.010	238855	4.29
31.013	238985	4.29
31.017	238148	4.27
31.020	238931	4.29
31.023	239733	4.30
31.027	239553	4.30
31.030	239406	4.30
31.033	239312	4.30
31.037	238638	4.28
31.040	239827	4.31
31.043	239852	4.31
31.047	239238	4.29
31.050	237640	4.27
31.053	236074	4.24
31.057	236212	4.24
31.060	237553	4.26
31.063	238582	4.28
31.067	239705	4.30
31.070	239627	4.30
31.073	239296	4.30
31.077	239770	4.30
31.080	239983	4.31
31.083	240658	4.32
31.087	240212	4.31
31.090	238967	4.29
31.093	239114	4.29
31.097	239651	4.30
31.100	239047	4.29
31.103	238296	4.28
31.107	237779	4.27
31.110	237204	4.26
31.113	238481	4.28
31.117	238938	4.29
31.120	238547	4.28
31.123	238510	4.28
31.127	236986	4.25
31.130	236086	4.24
31.133	235774	4.23
31.137	235779	4.23
31.140	235699	4.23
31.143	234864	4.22
31.147	235061	4.22
31.150	235465	4.23
31.153	234398	4.21
31.157	235333	4.22
31.160	236570	4.25
31.163	236291	4.24
31.167	236170	4.24
31.170	237723	4.27
31.173	236851	4.25
31.177	236491	4.25
31.180	235796	4.23
31.183	235027	4.22
31.187	235031	4.22
31.190	235125	4.22
31.193	236367	4.24
31.197	235767	4.23
31.200	235806	4.23
31.203	236296	4.24
31.207	235705	4.23
31.210	235821	4.23
31.213	235823	4.23
31.217	235577	4.23
31.220	236565	4.25
31.223	236729	4.25
31.227	235932	4.24
31.230	235593	4.23
31.233	236018	4.24
31.237	237695	4.27
31.240	238191	4.28
31.243	237971	4.27
31.247	237088	4.26
31.250	237249	4.26
31.253	237926	4.27
31.257	238538	4.28
31.260	239293	4.30
31.263	239401	4.30
31.267	239585	4.30
31.270	239459	4.30
31.273	239107	4.29
31.277	237799	4.27
31.280	236826	4.25
31.283	236683	4.25
31.287	237902	4.27
31.290	238117	4.27
31.293	238047	4.27
31.297	237937	4.27
31.300	238250	4.28
31.303	237549	4.26
31.307	237405	4.26
31.310	237926	4.27
31.313	239097	4.29
31.317	239805	4.30
31.320	238141	4.27
31.323	235138	4.22
31.327	235254	4.22
31.330	236158	4.24
31.333	238063	4.27
31.337	237992	4.27
31.340	238220	4.28
31.343	238275	4.28
31.347	238338	4.28
31.350	238275	4.28
31.353	238554	4.28
31.357	238068	4.27
31.360	235605	4.23
31.363	236904	4.25
31.367	238137	4.27
31.370	238589	4.28
31.373	238674	4.28
31.377	238251	4.28
31.380	238766	4.29
31.383	238432	4.28
31.387	237732	4.27
31.390	238150	4.27
31.393	238234	4.28
31.397	238035	4.27
31.400	235678	4.23
31.403	235343	4.22
31.407	234648	4.21
31.410	234248	4.20
31.413	234282	4.21
31.417	234525	4.21
31.420	233952	4.20
31.423	233502	4.19
31.427	233779	4.20
31.430	233906	4.20
31.433	234166	4.20
31.437	235573	4.23
31.440	235902	4.23
31.443	236483	4.25
31.447	235427	4.23
31.450	234446	4.21
31.453	235783	4.23
31.457	236662	4.25
31.460	236975	4.25
31.463	235970	4.24
31.467	234521	4.21
31.470	234052	4.20
31.473	235113	4.22
31.477	236123	4.24
31.480	235081	4.22
31.483	234095	4.20
31.487	233547	4.19
31.490	232877	4.18
31.493	233508	4.19
31.497	234531	4.21
31.500	236024	4.24
31.503	236019	4.24
31.507	234606	4.21
31.510	234343	4.21
31.513	234686	4.21
31.517	234725	4.21
31.520	234333	4.21
31.523	234173	4.20
31.527	233028	4.18
31.530	232056	4.17
31.533	232451	4.17
31.537	232714	4.18
31.540	234030	4.20
31.543	235593	4.23
31.547	236271	4.24
31.550	236482	4.25
31.553	236582	4.25
31.557	236600	4.25
31.560	236137	4.24
31.563	235609	4.23
31.567	235317	4.22
31.570	234731	4.21
31.573	235397	4.23
31.577	235437	4.23
31.580	234170	4.20
31.583	232618	4.18
31.587	232636	4.18
31.590	233819	4.20
31.593	234933	4.22
31.597	235938	4.24
31.600	235238	4.22
31.603	233780	4.20
31.607	234082	4.20
31.610	234664	4.21
31.613	235158	4.22
31.617	235689	4.23
31.620	235394	4.23
31.623	234933	4.22
31.627	234933	4.22
31.630	234586	4.21
31.633	234897	4.22
31.637	234090	4.20
31.640	233071	4.18
31.643	233677	4.19
31.647	234646	4.21
31.650	236049	4.24
31.653	235344	4.22
31.657	232435	4.17
31.660	232229	4.17
31.663	232647	4.18
31.667	231580	4.16
31.670	230224	4.13
31.673	230121	4.13
31.677	230273	4.13
31.680	232261	4.17
31.683	233620	4.19
31.687	233730	4.20
31.690	232512	4.17
31.693	232870	4.18
31.697	233065	4.18
31.700	232263	4.17
31.703	231423	4.15
31.707	232681	4.18
31.710	232423	4.17
31.713	231879	4.16
31.717	232960	4.18
31.720	234098	4.20
31.723	234045	4.20
31.727	233671	4.19
31.730	232040	4.17
31.733	231916	4.16
31.737	233429	4.19
31.740	233553	4.19
31.743	233025	4.18
31.747	233712	4.20
31.750	233850	4.20
31.753	234006	4.20
31.757	234268	4.21
31.760	235505	4.23
31.763	235727	4.23
31.767	234972	4.22
31.770	234398	4.21
31.773	235962	4.24
31.777	235074	4.22
31.780	234083	4.20
31.783	234837	4.22
31.787	235949	4.24
31.790	236134	4.24
31.793	235897	4.23
31.797	233944	4.20
31.800	233308	4.19
31.803	233617	4.19
31.807	236172	4.24
31.810	235907	4.23
31.813	233942	4.20
31.817	232782	4.18
31.820	232487	4.17
31.823	233977	4.20
31.827	233914	4.20
31.830	234269	4.21
31.833	233972	4.20
31.837	234459	4.21
31.840	236216	4.24
31.843	235511	4.23
31.847	234150	4.20
31.850	234047	4.20
31.853	233619	4.19
31.857	233322	4.19
31.860	233171	4.19
31.863	232886	4.18
31.867	233706	4.20
31.870	234034	4.20
31.873	234582	4.21
31.877	235051	4.22
31.880	234026	4.20
31.883	232978	4.18
31.887	232754	4.18
31.890	232418	4.17
31.893	233198	4.19
31.897	232069	4.17
31.900	231701	4.16
31.903	232509	4.17
31.907	233179	4.19
31.910	232844	4.18
31.913	233324	4.19
31.917	233393	4.19
31.920	233109	4.18
31.923	233362	4.19
31.927	232229	4.17
31.930	230978	4.15
31.933	232922	4.18
31.937	233557	4.19
31.940	233336	4.19
31.943	233045	4.18
31.947	231942	4.16
31.950	230847	4.14
31.953	230917	4.15
31.957	231501	4.16
31.960	232345	4.17
31.963	232875	4.18
31.967	231558	4.16
31.970	230413	4.14
31.973	231379	4.15
31.977	233005	4.18
31.980	233274	4.19
31.983	233186	4.19
31.987	233205	4.19
31.990	233590	4.19
31.993	233686	4.19
31.997	233259	4.19

